# n_walkers  560  n_cull  1  simple log(alpha)  -0.001784121793501292
#   T     log_Z(T)      F(T)        U(T)       Cvp(T)    low_pct_i(T) mode_i(T) high_pct_i(T) low_pct_iter(T)  mode_iter(T)   high_pct_iter(T) Z_fract(T)   V(T)   thermal_exp(T)
   0.01     55969.6    -572.946    -571.692     121.237   738953   739127   739127          738953          739127          739127 0.905097  3045.83    -0.00216899
  0.012     46421.4    -572.957    -571.449     121.271   738911   739127   739127          738911          739127          739127 0.911136  3045.81    -0.00293977
  0.014     39601.3    -572.969    -571.207     121.322   738881   739127   739127          738881          739127          739127 0.903508  3045.79    -0.00321687
  0.016     34486.3    -572.981    -570.964     121.384   738833   739127   739127          738833          739127          739127 0.910638  3045.77    -0.00318708
  0.018     30507.9    -572.993    -570.721     121.456   738795   739127   739127          738795          739127          739127 0.908275  3045.75    -0.00299441
   0.02     27325.3    -573.006    -570.478     121.537   738751   739127   739127          738751          739127          739127 0.908119  3045.74     -0.0027265
  0.022     24721.3    -573.018    -570.235     121.627   738712   739127   739127          738712          739127          739127 0.90377  3045.72    -0.00243212
  0.024     22551.3    -573.032    -569.992     121.727   738658   739127   739127          738658          739127          739127 0.905924  3045.71    -0.00213692
  0.026     20715.2    -573.045    -569.748     121.836   738597   739127   739127          738597          739127          739127 0.909589   3045.7    -0.00185384
  0.028     19141.4    -573.059    -569.504     121.956   738535   739127   739127          738535          739127          739127 0.912994  3045.68    -0.00158957
   0.03     17777.4    -573.073     -569.26     122.087   738476   739127   739127          738476          739127          739127 0.913878  3045.68    -0.00134801
  0.032       16584    -573.087    -569.016     122.231   738424   739127   739127          738424          739127          739127 0.91083  3045.67    -0.00113216
  0.034     15530.9    -573.102    -568.771      122.39   738374   739127   739127          738374          739127          739127 0.905765  3045.66   -0.000944798
  0.036     14594.9    -573.117    -568.526     122.564   738312   739127   739127          738312          739127          739127 0.902445  3045.66   -0.000788675
  0.038     13757.4    -573.132    -568.281     122.757   738233   739127   739127          738233          739127          739127 0.902566  3045.65   -0.000666365
   0.04     13003.7    -573.147    -568.035      122.97   738132   739127   739127          738132          739127          739127 0.906513  3045.65   -0.000580019
  0.042     12321.7    -573.163    -567.789     123.207   738033   739127   739127          738033          739127          739127 0.909085  3045.65   -0.000531112
  0.044     11701.8    -573.179    -567.543     123.471   737942   739127   739127          737942          739127          739127 0.908304  3045.64   -0.000520239
  0.046     11135.7    -573.196    -567.295     123.763   737846   739127   739127          737846          739127          739127 0.907039  3045.64   -0.000547008
  0.048     10616.9    -573.212    -567.047     124.089   737727   739127   739127          737727          739127          739127 0.908366  3045.64   -0.000610029
   0.05     10139.6    -573.229    -566.799     124.451   737616   739127   739127          737616          739127          739127 0.907237  3045.63   -0.000707018
  0.052     9698.95    -573.247     -566.55     124.855   737496   739127   739127          737496          739127          739127 0.905253  3045.63   -0.000834998
  0.054     9290.98    -573.264    -566.299     125.307   737336   739127   739127          737336          739127          739127 0.907201  3045.62   -0.000990605
  0.056     8912.16    -573.283    -566.048     125.814   737195   739127   739127          737195          739127          739127 0.904767  3045.61    -0.00117048
  0.058     8559.48    -573.301    -565.796     126.386   737038   739127   739127          737038          739127          739127 0.902729  3045.61    -0.00137172
   0.06     8230.31     -573.32    -565.543     127.037   736796   739127   739127          736796          739127          739127 0.907961   3045.6    -0.00159244
  0.062     7922.39     -573.34    -565.288     127.782   736562   739125   739127          736562          739125          739127 0.910323  3045.59    -0.00183237
  0.064     7633.72     -573.36    -565.032     128.645   736265   739125   739127          736265          739125          739127 0.915709  3045.58    -0.00209348
  0.066     7362.55     -573.38    -564.773     129.654   736028   739125   739127          736028          739125          739127 0.914736  3045.56    -0.00238073
  0.068     7107.35    -573.401    -564.513     130.846   735626   739125   739127          735626          739125          739127 0.922888  3045.55     -0.0027028
   0.07     6866.73    -573.423     -564.25     132.269   735236   739125   739127          735236          739125          739127 0.9287  3045.53    -0.00307279
  0.072      6639.5    -573.446    -563.984     133.981   734911   739125   739127          734911          739125          739127 0.92827  3045.51    -0.00350903
  0.074     6424.55    -573.469    -563.714     136.057   734568   739125   739127          734568          739125          739127 0.925632  3045.49    -0.00403558
  0.076     6220.93    -573.493    -563.439     138.586   734176   739125   739127          734176          739125          739127 0.921374  3045.46    -0.00468267
  0.078     6027.77    -573.518    -563.159      141.68   733732   739125   739127          733732          739125          739127 0.915908  3045.43    -0.00548668
   0.08     5844.28    -573.544    -562.872      145.47   732835   739113   739127          732835          739113          739127 0.922363  3045.39    -0.00648971
  0.082     5669.75    -573.572    -562.576     150.116   731917   738996   739127          731917          738996          739127 0.925858  3045.35     -0.0077385
  0.084     5503.55    -573.601    -562.271     155.813   730518   738996   739127          730518          738996          739127 0.939108   3045.3    -0.00928267
  0.086     5345.11    -573.631    -561.952     162.794   729125   738996   739127          729125          738996          739127 0.947379  3045.24     -0.0111725
  0.088     5193.88    -573.664    -561.618     171.341   727745   738996   739127          727745          738996          739127 0.952221  3045.16     -0.0134564
   0.09     5049.41    -573.699    -561.266     181.797   726359   738911   739127          726359          738911          739127 0.952794  3045.07     -0.0161775
  0.092     4911.24    -573.737     -560.89     194.559   724068   738505   739127          724068          738505          739127 0.961841  3044.96      -0.019369
  0.094     4778.99    -573.778    -560.486     210.043   721864   735484   739127          721864          735484          739127 0.965413  3044.83     -0.0230455
  0.096     4652.29    -573.822    -560.048      228.57   719567   735484   739127          719567          735484          739127 0.965615  3044.68      -0.027185
  0.098     4530.81    -573.872    -559.569     250.147   716224   735168   739127          716224          735168          739127 0.973007   3044.5     -0.0316975
    0.1     4414.24    -573.926    -559.045      274.14   712643   728972   739127          712643          728972          739127 0.980124  3044.29     -0.0363868
  0.102      4302.3    -573.987    -558.472     298.989   710133   728972   739127          710133          728972          739127 0.980648  3044.06     -0.0409282
  0.104     4194.74    -574.055     -557.85      322.28   707206   728957   739127          707206          728957          739127 0.983124   3043.8     -0.0449068
  0.106      4091.3    -574.131    -557.186     341.429   704403   724117   739127          704403          724117          739127 0.984537  3043.51     -0.0479426
  0.108     3991.78    -574.215    -556.489      354.83   701641   717767   739127          701641          717767          739127 0.985453  3043.22     -0.0498571
   0.11     3895.95    -574.307     -555.77     362.729   699565   716726   737399          699565          716726          737399 0.976494  3042.91     -0.0507642
  0.112     3803.63    -574.409     -555.04     367.136   697306   712956   734651          697306          712956          734651 0.966485   3042.6     -0.0510051
  0.114     3714.62    -574.519    -554.302     370.827   694780   712956   731763          694780          712956          731763 0.960695  3042.29     -0.0509686
  0.116     3628.75    -574.638    -553.556     376.142   691187   712087   729799          691187          712087          729799 0.965166  3041.98     -0.0509209
  0.118     3545.88    -574.766    -552.796     384.198   688430   706245   727320          688430          706245          727320 0.963785  3041.67     -0.0509269
   0.12     3465.83    -574.903    -552.017     394.721   685398   706245   724643          685398          706245          724643 0.964201  3041.36     -0.0508727
  0.122     3388.49    -575.049    -551.216     406.355   682363   704117   722465          682363          704117          722465 0.965899  3041.05     -0.0505508
  0.124     3313.72    -575.205    -550.392     417.286   679310   701234   719951          679310          701234          719951 0.96693  3040.75     -0.0497617
  0.126      3241.4     -575.37    -549.548     425.899   676228   696162   718063          676228          696162          718063 0.969835  3040.45     -0.0483866
  0.128     3171.42    -575.544    -548.691     431.206   673697   692706   715581          673697          692706          715581 0.968309  3040.16     -0.0464012
   0.13     3103.66    -575.729    -547.826     432.895   670587   692706   713411          670587          692706          713411 0.972305  3039.88     -0.0438448
  0.132     3038.03    -575.923    -546.961     431.108   668450   685969   710846          668450          685969          710846 0.970825  3039.63     -0.0407856
  0.134     2974.43    -576.126    -546.104     426.224   666689   685969   708010          666689          685969          708010 0.967275  3039.39     -0.0373182
  0.136     2912.76    -576.339    -545.258     418.812   664322   685787   705337          664322          685787          705337 0.967292  3039.17     -0.0335856
  0.138     2852.95     -576.56     -544.43     409.707   662192   681281   702951          662192          681281          702951 0.968478  3038.98     -0.0297909
   0.14      2794.9     -576.79     -543.62      400.05   660367   679594   700356          660367          679594          700356 0.967163  3038.81     -0.0261723
  0.142     2738.55    -577.028    -542.829     391.187   659071   672677   697355          659071          672677          697355 0.961017  3038.66     -0.0229499
  0.144     2683.82    -577.273    -542.054     384.459   657029   672677   694497          657029          672677          694497 0.957625  3038.53      -0.020275
  0.146     2630.63    -577.526    -541.289     380.954   654913   671350   692350          654913          671350          692350 0.956671  3038.41      -0.018203
  0.148     2578.94    -577.786    -540.527     381.297   652734   670752   690050          652734          670752          690050 0.954288  3038.31     -0.0166974
   0.15     2528.66    -578.053    -539.761       385.5   649348   670752   688039          649348          670752          688039 0.958872  3038.21     -0.0156538
  0.152     2479.76    -578.327    -538.983     392.872   646581   670752   686373          646581          670752          686373 0.9641  3038.12     -0.0149296
  0.154     2432.17    -578.609    -538.188     402.023   644260   663209   684274          644260          663209          684274 0.965849  3038.03     -0.0143715
  0.156     2385.85    -578.897    -537.375     411.048   642375   663209   682643          642375          663209          682643 0.96821  3037.94     -0.0138388
  0.158     2340.76    -579.193    -536.546     417.909   640724   663209   680750          640724          663209          680750 0.967659  3037.86       -0.01322
   0.16     2296.83    -579.497    -535.706     420.958   638546   663209   679177          638546          663209          679177 0.970683  3037.78     -0.0124452
  0.162     2254.04    -579.808    -534.865     419.407   636541   657185   677639          636541          657185          677639 0.973352  3037.71       -0.01149
  0.164     2212.33    -580.126    -534.031     413.532   635218   648978   675622          635218          648978          675622 0.971284  3037.64     -0.0103711
  0.166     2171.68    -580.452    -533.213     404.509   634134   648978   673443          634134          648978          673443 0.966754  3037.58     -0.0091335
  0.168     2132.03    -580.785    -532.414     393.999   632264   646894   671676          632264          646894          671676 0.967344  3037.53    -0.00783495
   0.17     2093.35    -581.124    -531.637      383.68   631195   646812   669286          631195          646812          669286 0.961318  3037.49    -0.00653225
  0.172     2055.61    -581.469    -530.879     374.916   629797   645800   667010          629797          645800          667010 0.957328  3037.45    -0.00527279
  0.174     2018.77     -581.82    -530.135     368.605   627960   645800   664939          627960          645800          664939 0.957062  3037.42    -0.00409107
  0.176      1982.8    -582.177    -529.402     365.186   626014   644943   663361          626014          644943          663361 0.959641   3037.4    -0.00300871
  0.178     1947.67     -582.54    -528.673     364.722   624339   643295   661239          624339          643295          661239 0.957742  3037.39    -0.00203584
   0.18     1913.35    -582.908    -527.941     366.996   622601   642379   658985          622601          642379          658985 0.955751  3037.38    -0.00117309
  0.182     1879.82    -583.281    -527.203     371.595   620590   642379   658021          620590          642379          658021 0.960138  3037.37   -0.000413388
  0.184     1847.04     -583.66    -526.454     377.968   618721   639007   656329          618721          639007          656329 0.959791  3037.37    0.000255854
  0.186        1815    -584.045    -525.691     385.469   615847   637965   654964          615847          637965          654964 0.966431  3037.38    0.000850227
  0.188     1783.67    -584.435    -524.912     393.391   614334   632515   653605          614334          632515          653605 0.967343  3037.38     0.00138517
   0.19     1753.03    -584.831    -524.117     401.015   612679   632515   652016          612679          632515          652016 0.967719  3037.39     0.00187252
  0.192     1723.07    -585.233    -523.308     407.674   611298   632515   650506          611298          632515          650506 0.96723  3037.41     0.00231746
  0.194     1693.75    -585.641    -522.488     412.829   609917   632515   649558          609917          632515          649558 0.968211  3037.42     0.00271663
  0.196     1665.05    -586.055    -521.658     416.141   607778   632515   648752          607778          632515          648752 0.972148  3037.44     0.00305832
  0.198     1636.97    -586.475    -520.824     417.523   606326   626240   647287          606326          626240          647287 0.970789  3037.46     0.00332486
    0.2     1609.48    -586.902    -519.989     417.148   604585   626240   646054          604585          626240          646054 0.971462  3037.48     0.00349684
  0.202     1582.57    -587.334    -519.157     415.411   602950   623414   644474          602950          623414          644474 0.970779   3037.5     0.00355823
  0.204     1556.21    -587.772    -518.328     412.851   602120   616581   642543          602120          616581          642543 0.96505  3037.52     0.00350082
  0.206     1530.39    -588.215    -517.505     410.054   600428   616581   640236          600428          616581          640236 0.961212  3037.54     0.00332729
  0.208     1505.09    -588.665    -516.688     407.559   598633   616568   638634          598633          616568          638634 0.96193  3037.56     0.00305197
   0.21     1480.31    -589.119    -515.875     405.782   597138   615961   637016          597138          615961          637016 0.961582  3037.58     0.00269955
  0.212     1456.01     -589.58    -515.064     404.973   595950   614982   635271          595950          614982          635271 0.958798  3037.59      0.0023019
  0.214      1432.2    -590.045    -514.254     405.207   594185   613484   633527          594185          613484          633527 0.958976  3037.61     0.00189371
  0.216     1408.85    -590.516    -513.443     406.394   592467   613484   632546          592467          613484          632546 0.962899  3037.62     0.00150772
  0.218     1385.95    -590.993    -512.628     408.318   591096   613484   630537          591096          613484          630537 0.959881  3037.63     0.00117014
   0.22      1363.5    -591.474    -511.809      410.68   588961   612066   629336          588961          612066          629336 0.964313  3037.63    0.000897088
  0.222     1341.47    -591.961    -510.985     413.153   587178   612066   628219          587178          612066          628219 0.967565  3037.64    0.000692643
  0.224     1319.86    -592.453    -510.156      415.43   585915   603876   626895          585915          603876          626895 0.967525  3037.64    0.000548892
  0.226     1298.65    -592.951    -509.324     417.262   584382   603876   625178          584382          603876          625178 0.966766  3037.64    0.000447902
  0.228     1277.84    -593.453    -508.488     418.483   583139   603876   623919          583139          603876          623919 0.966677  3037.65    0.000365195
   0.23     1257.42    -593.961     -507.65     419.019   581614   599231   622050          581614          599231          622050 0.965151  3037.65    0.000273946
  0.232     1237.37    -594.474    -506.812     418.876   580266   598270   620660          580266          598270          620660 0.965204  3037.65    0.000148979
  0.234     1217.68    -594.993    -505.975     418.126   578785   598270   619214          578785          598270          619214 0.96539  3037.65   -3.01928e-05
  0.236     1198.35    -595.516     -505.14     416.881   577204   598270   618051          577204          598270          618051 0.967672  3037.65   -0.000277729
  0.238     1179.36    -596.045    -504.308     415.267   576194   598270   617209          576194          598270          617209 0.968502  3037.65   -0.000601245
   0.24     1160.72    -596.578    -503.479     413.405   575067   592781   616069          575067          592781          616069 0.967975  3037.64    -0.00100272
  0.242      1142.4    -597.116    -502.654     411.398   573764   592781   614559          573764          592781          614559 0.966566  3037.63    -0.00148006
  0.244      1124.4    -597.659    -501.834     409.326   572316   592781   613033          572316          592781          613033 0.966293  3037.62    -0.00202872
  0.246     1106.71    -598.207    -501.017     407.248   570950   592781   611526          570950          592781          611526 0.966172  3037.61     -0.0026432
  0.248     1089.33    -598.759    -500.205     405.202   569921   588381   609730          569921          588381          609730 0.963724  3037.59    -0.00331799
   0.25     1072.24    -599.317    -499.396      403.22   568812   588381   608382          568812          588381          608382 0.963488  3037.57    -0.00404805
  0.252     1055.44    -599.878    -498.592     401.328   567261   587203   607286          567261          587203          607286 0.9661  3037.54    -0.00482903
  0.254     1038.93    -600.444    -497.791     399.555   566006   585520   605851          566006          585520          605851 0.966137  3037.51    -0.00565716
  0.256     1022.69    -601.015    -496.993      397.94   564982   585520   604722          564982          585520          604722 0.966307  3037.47    -0.00652927
  0.258     1006.72     -601.59    -496.199     396.528   563784   581071   603772          563784          581071          603772 0.96768  3037.43    -0.00744284
   0.26     991.009    -602.169    -495.407     395.373   562843   578118   601798          562843          578118          601798 0.963498  3037.38    -0.00839633
  0.262     975.556    -602.752    -494.617     394.534   561757   578118   600596          561757          578118          600596 0.963291  3037.33    -0.00938967
  0.264     960.353     -603.34    -493.829     394.073   560923   578118   599489          560923          578118          599489 0.961646  3037.27     -0.0104248
  0.266     945.394    -603.931    -493.041     394.049   559628   578115   598429          559628          578115          598429 0.962035   3037.2     -0.0115065
  0.268     930.674    -604.527    -492.252     394.513   558321   576927   597159          558321          576927          597159 0.96152  3037.13     -0.0126426
   0.27     916.187    -605.127    -491.462     395.507   557133   576927   595607          557133          576927          595607 0.959324  3037.05     -0.0138443
  0.272     901.928    -605.731     -490.67     397.057   555668   576927   594805          555668          576927          594805 0.961981  3036.96     -0.0151266
  0.274     887.892    -606.339    -489.874     399.172   554175   576927   593960          554175          576927          593960 0.964438  3036.86     -0.0165071
  0.276     874.075    -606.951    -489.073     401.837   553116   571665   592994          553116          571665          592994 0.963731  3036.76     -0.0180056
  0.278     860.471    -607.568    -488.266     405.017   551758   571215   591496          551758          571215          591496 0.96217  3036.64     -0.0196431
   0.28     847.075    -608.188    -487.452     408.651   550326   571215   590352          550326          571215          590352 0.962638  3036.52     -0.0214397
  0.282     833.885    -608.812    -486.631     412.654   548802   571215   589495          548802          571215          589495 0.964868  3036.38     -0.0234136
  0.284     820.895    -609.441    -485.802      416.92   547459   566386   588492          547459          566386          588492 0.965555  3036.24     -0.0255791
  0.286     808.101    -610.074    -484.963     421.325   546185   566386   587358          546185          566386          587358 0.965453  3036.07     -0.0279454
  0.288     795.499    -610.711    -484.116     425.731   544954   566386   586289          544954          566386          586289 0.965401   3035.9     -0.0305158
   0.29     783.086    -611.352     -483.26     429.997   543481   566386   585045          543481          566386          585045 0.965861   3035.7     -0.0332872
  0.292     770.858    -611.998    -482.396     433.988   542156   566386   584183          542156          566386          584183 0.967459  3035.49     -0.0362513
  0.294      758.81    -612.647    -481.525     437.585   540844   566386   583316          540844          566386          583316 0.968966  3035.26     -0.0393957
  0.296     746.941    -613.302    -480.646     440.697   539400   561839   582139          539400          561839          582139 0.969921  3035.01     -0.0427066
  0.298     735.244     -613.96    -479.762      443.27   538303   559180   581215          538303          559180          581215 0.970541  3034.74      -0.046172
    0.3     723.719    -614.623    -478.874     445.297   537214   557653   580270          537214          557653          580270 0.970973  3034.45     -0.0497857
  0.302      712.36     -615.29    -477.981     446.822   536061   555003   579091          536061          555003          579091 0.97067  3034.14     -0.0535512
  0.304     701.165    -615.961    -477.087      447.94   535508   555003   578191          535508          555003          578191 0.968657   3033.8     -0.0574857
  0.306      690.13    -616.637     -476.19     448.795   534567   555003   577068          534567          555003          577068 0.966512  3033.44     -0.0616232
  0.308     679.253    -617.317    -475.292     449.574   533497   555003   575752          533497          555003          575752 0.964118  3033.05     -0.0660179
   0.31      668.53    -618.002    -474.392     450.495   532392   549134   574556          532392          549134          574556 0.962039  3032.64      -0.070746
  0.312     657.958     -618.69    -473.489       451.8   530947   549134   573399          530947          549134          573399 0.961124  3032.19     -0.0759078
  0.314     647.534    -619.383    -472.584     453.738   529529   549134   572259          529529          549134          572259 0.960001  3031.72     -0.0816295
  0.316     637.256     -620.08    -471.674     456.558   527561   546399   571137          527561          546399          571137 0.9613   3031.2     -0.0880667
  0.318      627.12    -620.782    -470.757     460.499   525685   546399   569560          525685          546399          569560 0.96096  3030.65     -0.0954091
   0.32     617.125    -621.488    -469.831     465.794   523894   546399   568432          523894          546399          568432 0.962682  3030.04      -0.103891
  0.322     607.267    -622.198    -468.893     472.671   522514   546399   567373          522514          546399          567373 0.963148  3029.38      -0.113809
  0.324     597.544    -622.912    -467.939     481.371   521034   546399   566516          521034          546399          566516 0.964842  3028.66      -0.125551
  0.326     587.954    -623.631    -466.966     492.189   519952   543179   565345          519952          543179          565345 0.963088  3027.86      -0.139641
  0.328     578.495    -624.354    -465.969     505.525   518786   543179   563922          518786          543179          563922 0.960075  3026.96      -0.156818
   0.33     569.165    -625.082    -464.942     521.971   517613   539966   562725          517613          539966          562725 0.957574  3025.95      -0.178147
  0.332     559.962    -625.816    -463.878     542.442   515947   539966   561510          515947          539966          561510 0.956003   3024.8      -0.205188
  0.334     550.885    -626.554    -462.768     568.337   514677   539213   560458          514677          539213          560458 0.952477  3023.45      -0.240233
  0.336     541.932    -627.297      -461.6     601.752   513075   539213   559458          513075          539213          559458 0.948454  3021.87      -0.286628
  0.338     533.101    -628.046    -460.354     645.715   510139   539213   558441          510139          539213          558441 0.947153  3019.96      -0.349145
   0.34     524.393    -628.802    -459.007      704.36   506552   537689   557601          506552          537689          557601 0.946651  3017.61      -0.434346
  0.342     515.807    -629.564    -457.524      782.88   502072   537689   556485          502072          537689          556485 0.945805  3014.65      -0.550692
  0.344     507.343    -630.334    -455.858     886.943   497022   524492   555474          497022          524492          555474 0.943374  3010.88      -0.707933
  0.346     499.003    -631.113    -453.956     1021.05   493831   524077   553708          493831          524077          553708 0.929868  3006.03      -0.915007
  0.348     490.789    -631.903    -451.754     1185.38   475285   524077   552544          475285          524077          552544 0.965671  2999.78       -1.17553
   0.35     482.704    -632.705    -449.199     1371.26   471416   524077   551168          471416          524077          551168 0.968992  2991.84       -1.48076
  0.352     474.751    -633.521    -446.268     1557.23   468536   524077   549724          468536          524077          549724 0.968372  2982.03       -1.80245
  0.354     466.934    -634.353    -442.993     1709.89   463807   524077   548702          463807          524077          548702 0.975032  2970.41       -2.09167
  0.356     459.256    -635.204    -439.475     1793.35   459026   521754   547492          459026          521754          547492 0.981938  2957.36       -2.29067
  0.358     451.715    -636.073    -435.881      1785.2   456991   473710   545196          456991          473710          545196 0.981801  2943.58       -2.35652
   0.36     444.309     -636.96    -432.394     1688.26   456356   473710   541075          456356          473710          541075 0.974917  2929.89       -2.28223
  0.362     437.034    -637.865     -429.17     1528.61   455488   473710   534357          455488          473710          534357 0.961171  2917.04        -2.0985
  0.364     429.881    -638.785    -426.298     1341.78   454359   473710   528581          454359          473710          528581 0.954174  2905.51       -1.85575
  0.366     422.843    -639.719      -423.8     1158.28   453468   473710   524597          453468          473710          524597 0.951594  2895.49       -1.60169
  0.368     415.912    -640.665     -421.65     996.661   452328   473710   507682          452328          473710          507682 0.905819  2886.92       -1.36848
   0.37     409.082    -641.619    -419.794     864.085   451203   473710   503741          451203          473710          503741 0.916568  2879.61       -1.17123
  0.372     402.347    -642.582    -418.174     760.186   449466   473710   498683          449466          473710          498683 0.921557  2873.35       -1.01281
  0.374     395.703    -643.552    -416.737     680.955   448436   473710   496655          448436          473710          496655 0.933001   2867.9      -0.889434
  0.376     389.146    -644.528    -415.437     621.334   447886   473710   493025          447886          473710          493025 0.932918  2863.09      -0.794818
  0.378     382.671    -645.509    -414.242     576.559   447022   473710   491706          447022          473710          491706 0.942121  2858.76      -0.722462
   0.38     376.278    -646.495    -413.124     542.665   445968   473710   490678          445968          473710          490678 0.950937   2854.8      -0.666699
  0.382     369.964    -647.485    -412.066     516.574   445104   472631   489123          445104          472631          489123 0.955217  2851.12      -0.622983
  0.384     363.726     -648.48    -411.054     495.989   444447   459987   487520          444447          459987          487520 0.957407  2847.67      -0.587851
  0.386     357.563    -649.478    -410.079     479.244   444020   459987   486225          444020          459987          486225 0.958862  2844.41      -0.558748
  0.388     351.473    -650.481    -409.135      465.16   443370   459987   484786          443370          459987          484786 0.959517  2841.31      -0.533839
   0.39     345.454    -651.487    -408.217     452.914   442985   459654   483614          442985          459654          483614 0.959529  2838.34      -0.511837
  0.392     339.506    -652.496    -407.323     441.947   442175   459654   482501          442175          459654          482501 0.960953  2835.49      -0.491857
  0.394     333.626    -653.508    -406.449     431.889   441271   459654   481596          441271          459654          481596 0.963537  2832.76      -0.473313
  0.396     327.814    -654.524    -405.595     422.503   440617   458576   480684          440617          458576          480684 0.964649  2830.13      -0.455827
  0.398     322.068    -655.543    -404.759     413.643   440023   458024   479437          440023          458024          479437 0.963916   2827.6      -0.439168
    0.4     316.387    -656.564     -403.94     405.227   439338   458024   478819          439338          458024          478819 0.966272  2825.16      -0.423205
  0.402     310.769    -657.589    -403.138     397.212   438957   458024   478123          438957          458024          478123 0.966619  2822.81       -0.40787
  0.404     305.214    -658.616    -402.351     389.581   438193   457130   477605          438193          457130          477605 0.969143  2820.55      -0.393137
  0.406      299.72    -659.646    -401.579     382.328   437777   449711   476907          437777          449711          476907 0.969076  2818.38      -0.378999
  0.408     294.286    -660.679    -400.821     375.455   437288   449711   475890          437288          449711          475890 0.967635  2816.28       -0.36546
   0.41     288.912    -661.714    -400.077     368.965   436852   449711   474832          436852          449711          474832 0.965816  2814.26      -0.352523
  0.412     283.595    -662.751    -399.345     362.857   436247   449711   474057          436247          449711          474057 0.966379  2812.31      -0.340189
  0.414     278.336    -663.791    -398.625     357.127   436010   449711   472999          436010          449711          472999 0.963357  2810.43      -0.328454
  0.416     273.132    -664.833    -397.916     351.768   435787   449711   471080          435787          449711          471080 0.955811  2808.62      -0.317306
  0.418     267.984    -665.877    -397.218     346.767   435306   449711   469742          435306          449711          469742 0.953388  2806.87      -0.306726
   0.42      262.89    -666.924    -396.529     342.109   434653   449711   468469          434653          449711          468469 0.952701  2805.17       -0.29669
  0.422      257.85    -667.973    -395.849     337.773   434253   449711   467806          434253          449711          467806 0.954024  2803.54      -0.287167
  0.424     252.861    -669.023    -395.178     333.738   434026   449711   467347          434026          449711          467347 0.955004  2801.95      -0.278125
  0.426     247.925    -670.076    -394.514     329.981   433644   449711   466931          433644          449711          466931 0.956726  2800.42      -0.269528
  0.428     243.039    -671.131    -393.858     326.478   432681   449711   465805          432681          449711          465805 0.957706  2798.93      -0.261339
   0.43     238.202    -672.187    -393.208     323.204   432324   448505   465218          432324          448505          465218 0.958535  2797.49      -0.253519
  0.432     233.416    -673.246    -392.565     320.136   431960   448505   464741          431960          448505          464741 0.959792  2796.09      -0.246034
  0.434     228.677    -674.306    -391.927     317.249   431425   448505   464020          431425          448505          464020 0.960687  2794.74      -0.238847
  0.436     223.986    -675.369    -391.296     314.523   430980   448505   463537          430980          448505          463537 0.962323  2793.42      -0.231926
  0.438     219.342    -676.432    -390.669     311.936   430633   448505   463034          430633          448505          463034 0.963135  2792.15       -0.22524
   0.44     214.745    -677.498    -390.048     309.471   430337   448505   462610          430337          448505          462610 0.963922  2790.91      -0.218761
  0.442     210.192    -678.566    -389.431     307.111   429974   445360   461876          429974          445360          461876 0.963264   2789.7      -0.212463
  0.444     205.685    -679.635    -388.819      304.84   429318   445360   461471          429318          445360          461471 0.965856  2788.54      -0.206325
  0.446     201.222    -680.706    -388.212     302.647   429075   445360   461069          429075          445360          461069 0.966202   2787.4      -0.200328
  0.448     196.802    -681.778    -387.609      300.52   428703   441737   460707          428703          441737          460707 0.967257   2786.3      -0.194455
   0.45     192.425    -682.852     -387.01      298.45   428492   441737   460336          428492          441737          460336 0.967196  2785.23      -0.188692
  0.452      188.09    -683.928    -386.415     296.431   428013   441737   459794          428013          441737          459794 0.967548   2784.2      -0.183029
  0.454     183.797    -685.005    -385.824     294.457   427532   440336   459288          427532          440336          459288 0.968155   2783.2      -0.177457
  0.456     179.545    -686.084    -385.237     292.523   427268   440336   458757          427268          440336          458757 0.967502  2782.22      -0.171968
  0.458     175.334    -687.164    -384.654     290.627   427073   440165   458148          427073          440165          458148 0.965958  2781.28      -0.166558
   0.46     171.162    -688.246    -384.074     288.767   426783   440165   457534          426783          440165          457534 0.964878  2780.37      -0.161225
  0.462      167.03    -689.329    -383.499     286.942   426346   440165   457066          426346          440165          457066 0.965382  2779.49      -0.155964
  0.464     162.936    -690.414    -382.927     285.153   426058   440165   456347          426058          440165          456347 0.963695  2778.64      -0.150776
  0.466     158.881      -691.5    -382.358     283.398   425618   440165   455804          425618          440165          455804 0.96401  2777.81      -0.145661
  0.468     154.863    -692.587    -381.793     281.681   425241   436340   455412          425241          436340          455412 0.964819  2777.02      -0.140618
   0.47     150.882    -693.676    -381.231     280.001   424997   436340   454899          424997          436340          454899 0.964091  2776.25      -0.135648
  0.472     146.938    -694.766    -380.673     278.359   424679   436340   454463          424679          436340          454463 0.96423  2775.51      -0.130754
  0.474      143.03    -695.858    -380.118     276.759   424468   436321   453899          424468          436321          453899 0.962907   2774.8      -0.125935
  0.476     139.158    -696.951    -379.566     275.199   424062   436321   453386          424062          436321          453386 0.963025  2774.11      -0.121194
  0.478     135.321    -698.045    -379.017     273.683   423672   436321   453038          423672          436321          453038 0.964122  2773.45      -0.116531
   0.48     131.518     -699.14    -378.471     272.211   423386   436321   452683          423386          436321          452683 0.964502  2772.82      -0.111947
  0.482      127.75    -700.237    -377.928     270.783   422997   436321   452155          422997          436321          452155 0.964455  2772.21      -0.107444
  0.484     124.015    -701.335    -377.388       269.4   422741   436321   451802          422741          436321          451802 0.964717  2771.63      -0.103021
  0.486     120.314    -702.434    -376.851     268.063   422407   436321   451401          422407          436321          451401 0.965113  2771.07     -0.0986793
  0.488     116.646    -703.535    -376.316     266.772   422157   436321   450997          422157          436321          450997 0.965002  2770.54     -0.0944187
   0.49      113.01    -704.636    -375.783     265.525   421826   436321   450650          421826          436321          450650 0.965787  2770.02      -0.090239
  0.492     109.405    -705.739    -375.254     264.323   421606   434923   450450          421606          434923          450450 0.96671  2769.54     -0.0861395
  0.494     105.833    -706.843    -374.726     263.165   421303   434913   450081          421303          434913          450081 0.967006  2769.07     -0.0821195
  0.496     102.292    -707.949    -374.201     262.049   421058   434913   449993          421058          434913          449993 0.968651  2768.63     -0.0781779
  0.498     98.7809    -709.055    -373.678     260.975   420772   432686   449713          420772          432686          449713 0.969223   2768.2     -0.0743136
    0.5     95.3006    -710.162    -373.157      259.94   420689   432686   448925          420689          432686          448925 0.965301   2767.8     -0.0705252
  0.502     91.8502    -711.271    -372.638     258.945   420426   432686   448735          420426          432686          448735 0.966423  2767.42     -0.0668111
  0.504     88.4295    -712.381    -372.121     257.986   420205   432686   448371          420205          432686          448371 0.966016  2767.06     -0.0631697
  0.506     85.0379    -713.491    -371.606     257.062   419998   432686   447766          419998          432686          447766 0.964051  2766.72     -0.0595994
  0.508     81.6752    -714.603    -371.093     256.172   419862   432686   447320          419862          432686          447320 0.962655   2766.4     -0.0560982
   0.51      78.341    -715.716    -370.581     255.314   419598   432686   446933          419598          432686          446933 0.962492   2766.1     -0.0526645
  0.512     75.0349     -716.83    -370.072     254.487   419283   432686   446521          419283          432686          446521 0.96249  2765.82     -0.0492964
  0.514     71.7565    -717.945    -369.564     253.688   419023   431111   446324          419023          431111          446324 0.963555  2765.56     -0.0459919
  0.516     68.5056    -719.061    -369.057     252.917   418888   431111   445994          418888          431111          445994 0.962804  2765.31     -0.0427494
  0.518     65.2818    -720.178    -368.552     252.172   418680   431111   445581          418680          431111          445581 0.961915  2765.08      -0.039567
   0.52     62.0847    -721.297    -368.048     251.452   418421   431111   445366          418421          431111          445366 0.96258  2764.87     -0.0364429
  0.522     58.9141    -722.416    -367.546     250.756   418119   431111   444800          418119          431111          444800 0.961343  2764.68     -0.0333754
  0.524     55.7696    -723.536    -367.045     250.083   417650   431111   444628          417650          431111          444628 0.963788   2764.5     -0.0303627
  0.526     52.6509    -724.657    -366.546     249.433   417456   431111   444245          417456          431111          444245 0.963058  2764.34     -0.0274033
  0.528     49.5577    -725.779    -366.047     248.804   417230   431111   443805          417230          431111          443805 0.962178   2764.2     -0.0244954
   0.53     46.4896    -726.902     -365.55     248.197   416952   431111   443612          416952          431111          443612 0.963182  2764.07     -0.0216374
  0.532     43.4465    -728.026    -365.055     247.611   416645   431111   443120          416645          431111          443120 0.96244  2763.96     -0.0188277
  0.534     40.4279    -729.151     -364.56     247.047   416353   429319   442923          416353          429319          442923 0.963523  2763.87     -0.0160648
  0.536     37.4337    -730.277    -364.066     246.504   416071   429319   442618          416071          429319          442618 0.963825  2763.78     -0.0133471
  0.538     34.4634    -731.404    -363.574     245.982   415754   427585   442333          415754          427585          442333 0.964458  2763.72      -0.010673
   0.54     31.5169    -732.532    -363.082     245.483   415476   427585   442055          415476          427585          442055 0.964852  2763.67    -0.00804088
  0.542     28.5939    -733.661    -362.592     245.005   415291   427585   441919          415291          427585          441919 0.965532  2763.63    -0.00544922
  0.544     25.6941    -734.791    -362.102     244.551   415127   427585   441769          415127          427585          441769 0.965859  2763.61     -0.0028964
  0.546     22.8171    -735.921    -361.614      244.12   414891   427585   441491          414891          427585          441491 0.965747   2763.6   -0.000380784
  0.548     19.9629    -737.053    -361.126     243.712   414704   427585   441178          414704          427585          441178 0.965036   2763.6     0.00209927
   0.55      17.131    -738.185    -360.639     243.329   414336   427585   440893          414336          427585          440893 0.965663  2763.62     0.00454545
  0.552     14.3213    -739.319    -360.153     242.972   414083   427440   440719          414083          427440          440719 0.966255  2763.65     0.00695945
  0.554     11.5334    -740.453    -359.667      242.64   413796   425264   440444          413796          425264          440444 0.966437   2763.7     0.00934303
  0.556     8.76726    -741.588    -359.182     242.335   413631   424596   440181          413631          424596          440181 0.965872  2763.76      0.0116979
  0.558     6.02249    -742.724    -358.698     242.057   413465   424596   439806          413465          424596          439806 0.964558  2763.83       0.014026
   0.56     3.29889    -743.861    -358.214     241.806   413266   423704   439524          413266          423704          439524 0.964011  2763.91       0.016329
  0.562    0.596218    -744.999     -357.73     241.584   413121   423704   439211          413121          423704          439211 0.962851  2764.01      0.0186088
  0.564    -2.08575    -746.137    -357.247      241.39   412814   423704   438831          412814          423704          438831 0.96236  2764.12      0.0208673
  0.566    -4.74724    -747.277    -356.765     241.224   412518   423704   438579          412518          423704          438579 0.962655  2764.24      0.0231062
  0.568    -7.38848    -748.417    -356.283     241.088   412248   422997   438353          412248          422997          438353 0.962928  2764.37      0.0253275
   0.57    -10.0097    -749.558      -355.8     240.981   412061   422997   438008          412061          422997          438008 0.961849  2764.52       0.027533
  0.572    -12.6111      -750.7    -355.319     240.902   411857   422997   437719          411857          422997          437719 0.961242  2764.68      0.0297244
  0.574    -15.1929    -751.843    -354.837     240.852   411543   422997   437460          411543          422997          437460 0.961575  2764.85      0.0319036
  0.576    -17.7553    -752.987    -354.355      240.83   411372   422766   437301          411372          422766          437301 0.961602  2765.03      0.0340723
  0.578    -20.2985    -754.131    -353.873     240.837   411067   422766   436976          411067          422766          436976 0.961415  2765.22      0.0362322
   0.58    -22.8227    -755.277    -353.392      240.87   410694   422766   436749          410694          422766          436749 0.962478  2765.43      0.0383849
  0.582    -25.3282    -756.423     -352.91     240.931   410557   422766   436582          410557          422766          436582 0.962232  2765.65      0.0405319
  0.584    -27.8151     -757.57    -352.428     241.017   410282   422766   436395          410282          422766          436395 0.962779  2765.88      0.0426746
  0.586    -30.2836    -758.718    -351.946     241.128   409918   422766   436086          409918          422766          436086 0.963072  2766.12      0.0448143
  0.588    -32.7338    -759.867    -351.464     241.262   409674   421880   435673          409674          421880          435673 0.961893  2766.37      0.0469523
   0.59    -35.1661    -761.016    -350.981     241.419   409445   421880   435442          409445          421880          435442 0.961967  2766.64      0.0490897
  0.592    -37.5806    -762.167    -350.498     241.597   409309   421880   435216          409309          421880          435216 0.961369  2766.92      0.0512274
  0.594    -39.9774    -763.318    -350.014     241.794   409063   421880   435083          409063          421880          435083 0.962197  2767.21      0.0533661
  0.596    -42.3567     -764.47    -349.531      242.01   408978   421880   434951          408978          421880          434951 0.961758  2767.51      0.0555067
  0.598    -44.7188    -765.623    -349.046     242.242   408797   421880   434659          408797          421880          434659 0.96075  2767.82      0.0576494
    0.6    -47.0637    -766.776    -348.562     242.488   408351   421880   434455          408351          421880          434455 0.962389  2768.15      0.0597947
  0.602    -49.3917    -767.931    -348.076     242.747   408027   421880   434103          408027          421880          434103 0.962096  2768.48      0.0619428
  0.604     -51.703    -769.086    -347.591     243.017   407874   421880   433864          407874          421880          433864 0.961495  2768.83      0.0640935
  0.606    -53.9976    -770.242    -347.104     243.296   407388   421880   433595          407388          421880          433595 0.96312  2769.19      0.0662467
  0.608    -56.2759    -771.399    -346.617     243.581   407224   421880   433444          407224          421880          433444 0.963321  2769.57      0.0684021
   0.61    -58.5378    -772.557     -346.13     243.872   406949   421137   433278          406949          421137          433278 0.964202  2769.95      0.0705591
  0.612    -60.7836    -773.715    -345.642     244.165   406781   420773   433136          406781          420773          433136 0.9644  2770.35       0.072717
  0.614    -63.0135    -774.875    -345.153      244.46   406498   420773   432956          406498          420773          432956 0.965093  2770.76      0.0748749
  0.616    -65.2276    -776.035    -344.664     244.753   406225   420773   432841          406225          420773          432841 0.96619  2771.18      0.0770317
  0.618     -67.426    -777.196    -344.174     245.043   406087   420773   432732          406087          420773          432732 0.966308  2771.61      0.0791864
   0.62     -69.609    -778.357    -343.684     245.327   405568   420773   432495          405568          420773          432495 0.96811  2772.06      0.0813375
  0.622    -71.7766     -779.52    -343.193     245.605   405464   420773   432345          405464          420773          432345 0.967811  2772.51      0.0834835
  0.624     -73.929    -780.683    -342.702     245.874   405237   420773   432100          405237          420773          432100 0.96768  2772.98      0.0856229
  0.626    -76.0664    -781.848     -342.21     246.131   404871   420773   431909          404871          420773          431909 0.968732  2773.46       0.087754
  0.628    -78.1889    -783.013    -341.717     246.377   404661   420773   431810          404661          420773          431810 0.969449  2773.95      0.0898748
   0.63    -80.2966    -784.178    -341.224     246.608   404526   417655   431613          404526          417655          431613 0.969029  2774.46      0.0919837
  0.632    -82.3897    -785.345    -340.731     246.824   404384   417655   431331          404384          417655          431331 0.968076  2774.98      0.0940785
  0.634    -84.4683    -786.512    -340.237     247.022   404070   417655   431190          404070          417655          431190 0.969148   2775.5      0.0961572
  0.636    -86.5327    -787.681    -339.743     247.202   403938   417655   430947          403938          417655          430947 0.968371  2776.04      0.0982178
  0.638    -88.5828     -788.85    -339.248     247.362   403488   417655   430753          403488          417655          430753 0.969932  2776.59       0.100258
   0.64    -90.6188    -790.019    -338.753     247.501   403228   417655   430453          403228          417655          430453 0.969775  2777.16       0.102276
  0.642    -92.6409     -791.19    -338.258     247.618   403092   415476   430151          403092          415476          430151 0.968857  2777.73        0.10427
  0.644    -94.6493    -792.361    -337.763     247.712   403009   415476   429814          403009          415476          429814 0.967356  2778.31       0.106237
  0.646    -96.6439    -793.534    -337.267     247.783   402856   415476   429645          402856          415476          429645 0.967324  2778.91       0.108175
  0.648    -98.6251    -794.707    -336.772      247.83   402471   415476   429494          402471          415476          429494 0.968874  2779.52       0.110083
   0.65    -100.593     -795.88    -336.276     247.852   402272   415476   429347          402272          415476          429347 0.969273  2780.13       0.111958
  0.652    -102.547    -797.055     -335.78     247.849   401987   415375   429033          401987          415375          429033 0.969204  2780.76       0.113799
  0.654    -104.489     -798.23    -335.284     247.821   401741   415375   428800          401741          415375          428800 0.969452   2781.4       0.115604
  0.656    -106.417    -799.406    -334.789     247.767   401590   415375   428537          401590          415375          428537 0.968906  2782.05       0.117371
  0.658    -108.332    -800.583    -334.293     247.687   401465   415375   428371          401465          415375          428371 0.968813  2782.71       0.119098
   0.66    -110.235    -801.761    -333.798     247.583   401197   415375   428209          401197          415375          428209 0.969613  2783.37       0.120785
  0.662    -112.125    -802.939    -333.303     247.453   400759   415375   428060          400759          415375          428060 0.971606  2784.05       0.122429
  0.664    -114.002    -804.119    -332.808     247.298   400551   413656   427850          400551          413656          427850 0.971842  2784.74        0.12403
  0.666    -115.867    -805.299    -332.314     247.119   400467   413656   427716          400467          413656          427716 0.971773  2785.43       0.125586
  0.668     -117.72    -806.479     -331.82     246.915   400299   413656   427552          400299          413656          427552 0.97198  2786.14       0.127097
   0.67     -119.56    -807.661    -331.326     246.688   400197   413656   427291          400197          413656          427291 0.971165  2786.85       0.128562
  0.672    -121.388    -808.843    -330.833     246.439   400028   412126   426966          400028          412126          426966 0.970398  2787.57        0.12998
  0.674    -123.205    -810.026    -330.341     246.167   399830   410696   426721          399830          410696          426721 0.970303   2788.3        0.13135
  0.676    -125.009     -811.21    -329.849     245.874   399646   410696   426509          399646          410696          426509 0.970396  2789.03       0.132672
  0.678    -126.802    -812.394    -329.357      245.56   399440   410696   426356          399440          410696          426356 0.970992  2789.78       0.133947
   0.68    -128.583     -813.58    -328.866     245.227   399281   410696   426129          399281          410696          426129 0.970823  2790.53       0.135174
  0.682    -130.353    -814.766    -328.376     244.876   399188   410696   425873          399188          410696          425873 0.970033  2791.29       0.136352
  0.684    -132.111    -815.952    -327.887     244.507   399001   410696   425720          399001          410696          425720 0.970497  2792.05       0.137483
  0.686    -133.858     -817.14    -327.398     244.121   398892   410696   425483          398892          410696          425483 0.96989  2792.82       0.138567
  0.688    -135.594    -818.328     -326.91      243.72   398593   410696   425337          398593          410696          425337 0.971152   2793.6       0.139604
   0.69    -137.318    -819.517    -326.423     243.305   398499   410696   425124          398499          410696          425124 0.970638  2794.38       0.140595
  0.692    -139.032    -820.707    -325.937     242.876   398370   410696   424934          398370          410696          424934 0.970489  2795.17        0.14154
  0.694    -140.735    -821.897    -325.452     242.435   398315   409927   424720          398315          409927          424720 0.969667  2795.96        0.14244
  0.696    -142.426    -823.088    -324.967     241.983   398203   409927   424534          398203          409927          424534 0.969366  2796.76       0.143296
  0.698    -144.108     -824.28    -324.484     241.521   397958   409927   424250          397958          409927          424250 0.969332  2797.57        0.14411
    0.7    -145.778    -825.472    -324.001     241.051   397825   409927   424116          397825          409927          424116 0.969568  2798.38       0.144882
  0.702    -147.438    -826.665     -323.52     240.573   397687   409712   423976          397687          409712          423976 0.969767  2799.19       0.145614
  0.704    -149.088    -827.859    -323.039     240.088   397598   409712   423787          397598          409712          423787 0.96928  2800.01       0.146307
  0.706    -150.727    -829.054    -322.559     239.598   397497   409712   423601          397497          409712          423601 0.968845  2800.83       0.146962
  0.708    -152.356    -830.249    -322.081     239.104   397340   409475   423465          397340          409475          423465 0.969102  2801.65       0.147581
   0.71    -153.975    -831.445    -321.603     238.606   397246   409475   423242          397246          409475          423242 0.968337  2802.48       0.148165
  0.712    -155.584    -832.641    -321.126     238.107   397086   407409   423057          397086          407409          423057 0.968264  2803.31       0.148716
  0.714    -157.183    -833.838     -320.65     237.606   396878   407409   422876          396878          407409          422876 0.968535  2804.15       0.149235
  0.716    -158.773    -835.036    -320.176     237.105   396720   407409   422569          396720          407409          422569 0.967623  2804.99       0.149724
  0.718    -160.352    -836.235    -319.702     236.605   396495   407409   422431          396495          407409          422431 0.968381  2805.83       0.150185
   0.72    -161.922    -837.434    -319.229     236.107   396421   407409   422247          396421          407409          422247 0.967755  2806.67       0.150619
  0.722    -163.482    -838.633    -318.758     235.612   396218   407409   422020          396218          407409          422020 0.967742  2807.52       0.151028
  0.724    -165.033    -839.834    -318.287     235.121   396072   407409   421883          396072          407409          421883 0.967948  2808.37       0.151413
  0.726    -166.574    -841.035    -317.817     234.635   395902   407409   421573          395902          407409          421573 0.967137  2809.22       0.151777
  0.728    -168.106    -842.237    -317.348     234.154   395775   407409   421359          395775          407409          421359 0.966721  2810.07       0.152122
   0.73    -169.628    -843.439    -316.881     233.679   395722   407052   421174          395722          407052          421174 0.965956  2810.93       0.152448
  0.732    -171.142    -844.642    -316.414     233.212   395544   407052   420962          395544          407052          420962 0.965872  2811.79       0.152757
  0.734    -172.646    -845.845    -315.948     232.753   395466   407052   420788          395466          407052          420788 0.96534  2812.65       0.153052
  0.736    -174.142     -847.05    -315.483     232.303   395333   407052   420492          395333          407052          420492 0.964337  2813.51       0.153334
  0.738    -175.628    -848.254    -315.018     231.862   395174   407052   420243          395174          407052          420243 0.963854  2814.37       0.153605
   0.74    -177.106     -849.46    -314.555     231.432   395095   407052   420055          395095          407052          420055 0.963213  2815.24       0.153866
  0.742    -178.574    -850.666    -314.093     231.012   394991   405569   419733          394991          405569          419733 0.961804  2816.11       0.154119
  0.744    -180.034    -851.872    -313.631     230.604   394761   405569   419512          394761          405569          419512 0.962014  2816.98       0.154365
  0.746    -181.486     -853.08     -313.17     230.208   394634   405569   419321          394634          405569          419321 0.961701  2817.85       0.154607
  0.748    -182.929    -854.287     -312.71     229.824   394518   405569   419159          394518          405569          419159 0.961482  2818.72       0.154845
   0.75    -184.363    -855.496    -312.251     229.454   394335   405569   418918          394335          405569          418918 0.961137  2819.59       0.155081
  0.752    -185.789    -856.705    -311.792     229.097   394250   405569   418597          394250          405569          418597 0.959565  2820.47       0.155317
  0.754    -187.207    -857.914    -311.335     228.755   394159   405553   418434          394159          405553          418434 0.959127  2821.34       0.155554
  0.756    -188.616    -859.124    -310.877     228.427   393928   405553   418334          393928          405553          418334 0.960094  2822.22       0.155793
  0.758    -190.018    -860.335    -310.421     228.115   393777   405553   418202          393777          405553          418202 0.960227   2823.1       0.156036
   0.76    -191.411    -861.546    -309.965     227.817   393557   405553   417963          393557          405553          417963 0.960099  2823.98       0.156284
  0.762    -192.796    -862.758     -309.51     227.536   393112   405548   417858          393112          405548          417858 0.962512  2824.87       0.156537
  0.764    -194.173     -863.97    -309.055      227.27   392980   403346   417710          392980          403346          417710 0.962453  2825.75       0.156799
  0.766    -195.542    -865.183    -308.601     227.021   392904   403346   417510          392904          403346          417510 0.961581  2826.64       0.157068
  0.768    -196.903    -866.397    -308.147     226.788   392787   403346   417311          392787          403346          417311 0.960987  2827.53       0.157347
   0.77    -198.257    -867.611    -307.693     226.573   392684   403346   417040          392684          403346          417040 0.959756  2828.42       0.157637
  0.772    -199.603    -868.825     -307.24     226.374   392251   403346   416897          392251          403346          416897 0.961904  2829.31       0.157938
  0.774    -200.941    -870.041    -306.788     226.192   392072   403346   416738          392072          403346          416738 0.962109  2830.21       0.158251
  0.776    -202.271    -871.256    -306.336     226.028   391739   403346   416516          391739          403346          416516 0.963054   2831.1       0.158577
  0.778    -203.594    -872.473    -305.884     225.881   391631   403346   416360          391631          403346          416360 0.962832     2832       0.158918
   0.78     -204.91    -873.689    -305.432     225.751   391409   403346   416248          391409          403346          416248 0.963761   2832.9       0.159273
  0.782    -206.218    -874.907    -304.981     225.639   391292   401992   415992          391292          401992          415992 0.96286  2833.81       0.159643
  0.784    -207.518    -876.125     -304.53     225.544   391078   401992   415862          391078          401992          415862 0.963592  2834.71       0.160029
  0.786    -208.812    -877.343    -304.079     225.466   390882   401992   415726          390882          401992          415726 0.964158  2835.62       0.160432
  0.788    -210.098    -878.562    -303.628     225.406   390696   400934   415543          390696          400934          415543 0.964318  2836.53       0.160852
   0.79    -211.377    -879.781    -303.177     225.364   390536   400934   415381          390536          400934          415381 0.96446  2837.45       0.161289
  0.792    -212.649    -881.001    -302.726     225.338   390386   400762   415081          390386          400762          415081 0.963504  2838.36       0.161744
  0.794    -213.913    -882.222    -302.276     225.329   390283   400762   414895          390283          400762          414895 0.963071  2839.28       0.162217
  0.796    -215.171    -883.443    -301.825     225.338   390168   400762   414584          390168          400762          414584 0.961788  2840.21       0.162708
  0.798    -216.422    -884.665    -301.374     225.362   390033   400762   414487          390033          400762          414487 0.962284  2841.13       0.163218
    0.8    -217.666    -885.887    -300.923     225.404   389985   400558   414343          389985          400558          414343 0.961704  2842.06       0.163747
  0.802    -218.902     -887.11    -300.473     225.461   389884   400558   414139          389884          400558          414139 0.961028  2842.99       0.164295
  0.804    -220.133    -888.333    -300.022     225.535   389813   400558   413995          389813          400558          413995 0.960551  2843.93       0.164861
  0.806    -221.356    -889.556     -299.57     225.624   389680   400558   413836          389680          400558          413836 0.960394  2844.87       0.165447
  0.808    -222.573    -890.781    -299.119     225.728   389510   400558   413687          389510          400558          413687 0.960601  2845.81       0.166051
   0.81    -223.783    -892.005    -298.667     225.848   389259   400558   413381          389259          400558          413381 0.960248  2846.76       0.166674
  0.812    -224.986    -893.231    -298.216     225.982   389184   400558   413252          389184          400558          413252 0.959942  2847.71       0.167316
  0.814    -226.183    -894.457    -297.764      226.13   389125   400558   413042          389125          400558          413042 0.958833  2848.67       0.167976
  0.816    -227.373    -895.683    -297.311     226.293   388886   400558   412946          388886          400558          412946 0.960013  2849.63       0.168655
  0.818    -228.557     -896.91    -296.858     226.469   388805   400558   412784          388805          400558          412784 0.959419  2850.59       0.169351
   0.82    -229.735    -898.137    -296.405     226.658   388635   400558   412664          388635          400558          412664 0.959845  2851.56       0.170066
  0.822    -230.906    -899.365    -295.952      226.86   388547   400558   412542          388547          400558          412542 0.959584  2852.53       0.170797
  0.824    -232.071    -900.593    -295.498     227.074   388435   400558   412445          388435          400558          412445 0.95966   2853.5       0.171546
  0.826    -233.229    -901.822    -295.043     227.299   388261   400558   412284          388261          400558          412284 0.959715  2854.49       0.172312
  0.828    -234.382    -903.052    -294.589     227.537   388126   400558   412180          388126          400558          412180 0.959884  2855.47       0.173093
   0.83    -235.528    -904.282    -294.133     227.785   387866   400558   412009          387866          400558          412009 0.960523  2856.46       0.173891
  0.832    -236.668    -905.512    -293.677     228.043   387717   400558   411862          387717          400558          411862 0.960483  2857.46       0.174704
  0.834    -237.802    -906.743    -293.221     228.312   387593   400558   411695          387593          400558          411695 0.960087  2858.46       0.175532
  0.836     -238.93    -907.975    -292.764      228.59   387442   400558   411630          387442          400558          411630 0.960676  2859.47       0.176374
  0.838    -240.052    -909.207    -292.307     228.877   387287   398605   411518          387287          398605          411518 0.9609  2860.48        0.17723
   0.84    -241.168     -910.44    -291.849     229.172   387233   398605   411343          387233          398605          411343 0.959833  2861.49       0.178099
  0.842    -242.278    -911.673     -291.39     229.476   387029   398605   411237          387029          398605          411237 0.960417  2862.52       0.178981
  0.844    -243.382    -912.906    -290.931     229.787   386793   398605   411118          386793          398605          411118 0.961165  2863.54       0.179875
  0.846     -244.48     -914.14    -290.471     230.106   386714   398605   410965          386714          398605          410965 0.960434  2864.58        0.18078
  0.848    -245.572    -915.375     -290.01     230.431   386642   398605   410883          386642          398605          410883 0.960141  2865.62       0.181697
   0.85    -246.659     -916.61    -289.549     230.762   386553   398605   410760          386553          398605          410760 0.959605  2866.66       0.182624
  0.852     -247.74    -917.846    -289.087     231.099   386459   398605   410559          386459          398605          410559 0.958471  2867.71       0.183561
  0.854    -248.816    -919.082    -288.625     231.442   386224   398605   410441          386224          398605          410441 0.959054  2868.76       0.184507
  0.856    -249.885    -920.319    -288.161     231.789   385758   398605   410302          385758          398605          410302 0.961277  2869.83       0.185462
  0.858    -250.949    -921.556    -287.698      232.14   385620   398605   410190          385620          398605          410190 0.96128  2870.89       0.186425
   0.86    -252.008    -922.794    -287.233     232.496   385508   398605   410044          385508          398605          410044 0.960806  2871.97       0.187396
  0.862    -253.061    -924.032    -286.768     232.855   385375   398605   409977          385375          398605          409977 0.961059  2873.05       0.188374
  0.864    -254.109    -925.271    -286.301     233.218   385152   398605   409856          385152          398605          409856 0.961538  2874.13       0.189358
  0.866    -255.151     -926.51    -285.835     233.583   384985   398605   409761          384985          398605          409761 0.961817  2875.22       0.190348
  0.868    -256.187     -927.75    -285.367     233.951   384711   398605   409592          384711          398605          409592 0.96233  2876.32       0.191343
   0.87    -257.219    -928.991    -284.899     234.321   384573   398605   409515          384573          398605          409515 0.962544  2877.43       0.192344
  0.872    -258.245    -930.232     -284.43     234.693   384343   398605   409414          384343          398605          409414 0.963248  2878.54       0.193348
  0.874    -259.265    -931.473     -283.96     235.067   384193   398605   409248          384193          398605          409248 0.962885  2879.65       0.194357
  0.876    -260.281    -932.715     -283.49     235.441   384060   398605   409118          384060          398605          409118 0.962659  2880.77       0.195369
  0.878    -261.291    -933.958    -283.018     235.817   383767   398605   408861          383767          398605          408861 0.96269   2881.9       0.196384
   0.88    -262.296    -935.201    -282.546     236.193   383431   398605   408762          383431          398605          408762 0.96421  2883.04       0.197402
  0.882    -263.296    -936.444    -282.074     236.569   383264   398605   408684          383264          398605          408684 0.964698  2884.18       0.198421
  0.884    -264.291    -937.688      -281.6     236.946   383056   398605   408617          383056          398605          408617 0.965506  2885.33       0.199443
  0.886     -265.28    -938.933    -281.126     237.322   382937   398605   408559          382937          398605          408559 0.965737  2886.48       0.200465
  0.888    -266.265    -940.178    -280.651     237.698   382769   398605   408442          382769          398605          408442 0.965885  2887.64       0.201489
   0.89    -267.245    -941.424    -280.175     238.074   382669   396530   408367          382669          396530          408367 0.965814  2888.81       0.202513
  0.892    -268.219     -942.67    -279.698     238.449   382502   396530   408231          382502          396530          408231 0.965768  2889.98       0.203538
  0.894    -269.189    -943.917    -279.221     238.823   382323   396530   408108          382323          396530          408108 0.965885  2891.16       0.204562
  0.896    -270.154    -945.164    -278.743     239.195   382176   396530   408046          382176          396530          408046 0.966165  2892.35       0.205586
  0.898    -271.113    -946.412    -278.264     239.567   382076   396530   407878          382076          396530          407878 0.965414  2893.54       0.206609
    0.9    -272.068     -947.66    -277.785     239.937   381692   396530   407771          381692          396530          407771 0.96696  2894.74       0.207631
  0.902    -273.018    -948.909    -277.305     240.306   381339   396530   407699          381339          396530          407699 0.968562  2895.94       0.208652
  0.904    -273.964    -950.158    -276.824     240.673   380981   391766   407598          380981          391766          407598 0.970038  2897.16       0.209672
  0.906    -274.904    -951.408    -276.342     241.038   380939   391766   407463          380939          391766          407463 0.969283  2898.37       0.210689
  0.908     -275.84    -952.659     -275.86     241.401   380835   391766   407303          380835          391766          407303 0.968727   2899.6       0.211705
   0.91    -276.771     -953.91    -275.376     241.762   380731   391766   407135          380731          391766          407135 0.968122  2900.83       0.212718
  0.912    -277.698    -955.161    -274.892     242.121   380614   391766   407024          380614          391766          407024 0.967955  2902.07       0.213729
  0.914     -278.62    -956.414    -274.408     242.478   380474   391766   406748          380474          391766          406748 0.966867  2903.31       0.214737
  0.916    -279.537    -957.666    -273.923     242.833   380292   391766   406583          380292          391766          406583 0.966809  2904.56       0.215742
  0.918     -280.45    -958.919    -273.437     243.185   380198   391766   406470          380198          391766          406470 0.966511  2905.82       0.216744
   0.92    -281.358    -960.173     -272.95     243.535   380064   391766   406377          380064          391766          406377 0.966586  2907.08       0.217743
  0.922    -282.261    -961.427    -272.462     243.883   379899   391766   406123          379899          391766          406123 0.965769  2908.35       0.218737
  0.924     -283.16    -962.682    -271.974     244.227   379830   391766   405990          379830          391766          405990 0.965144  2909.62       0.219728
  0.926    -284.055    -963.937    -271.486     244.569   379595   391766   405887          379595          391766          405887 0.96585  2910.91       0.220715
  0.928    -284.945    -965.193    -270.996     244.909   379528   391766   405745          379528          391766          405745 0.965134  2912.19       0.221698
   0.93    -285.831     -966.45    -270.506     245.245   379336   391766   405627          379336          391766          405627 0.965433  2913.49       0.222676
  0.932    -286.712    -967.706    -270.015     245.579   379226   391766   405572          379226          391766          405572 0.965583  2914.79       0.223649
  0.934    -287.589    -968.964    -269.524     245.909   379060   390648   405363          379060          390648          405363 0.965055   2916.1       0.224617
  0.936    -288.462    -970.222    -269.031     246.237   378806   390648   405115          378806          390648          405115 0.964893  2917.41        0.22558
  0.938    -289.331     -971.48    -268.539     246.561   378742   390648   404971          378742          390648          404971 0.964161  2918.73       0.226538
   0.94    -290.195     -972.74    -268.045     246.882   378458   390648   404901          378458          390648          404901 0.965483  2920.05       0.227489
  0.942    -291.055    -973.999    -267.551       247.2   378339   390648   404793          378339          390648          404793 0.965384  2921.39       0.228435
  0.944     -291.91    -975.259    -267.056     247.514   378208   390403   404618          378208          390403          404618 0.964889  2922.72       0.229374
  0.946    -292.762     -976.52    -266.561     247.825   378126   390403   404400          378126          390403          404400 0.963737  2924.07       0.230307
  0.948    -293.609    -977.781    -266.065     248.131   378080   390403   404289          378080          390403          404289 0.963079  2925.42       0.231232
   0.95    -294.452    -979.043    -265.569     248.435   377950   390403   404207          377950          390403          404207 0.963193  2926.77       0.232151
  0.952    -295.292    -980.305    -265.071     248.734   377722   390403   403968          377722          390403          403968 0.962872  2928.13       0.233062
  0.954    -296.127    -981.568    -264.574     249.029   377536   390403   403816          377536          390403          403816 0.962925   2929.5       0.233964
  0.956    -296.958    -982.832    -264.075      249.32   377372   390403   403730          377372          390403          403730 0.963301  2930.88       0.234859
  0.958    -297.784    -984.096    -263.576     249.607   377290   390403   403658          377290          390403          403658 0.963155  2932.26       0.235745
   0.96    -298.607     -985.36    -263.077     249.889   377210   390403   403583          377210          390403          403583 0.962925  2933.64       0.236622
  0.962    -299.426    -986.625    -262.577     250.167   376998   390403   403502          376998          390403          403502 0.963585  2935.03        0.23749
  0.964    -300.241    -987.891    -262.076      250.44   376810   390403   403377          376810          390403          403377 0.963758  2936.43       0.238348
  0.966    -301.052    -989.157    -261.575     250.708   376765   390403   403258          376765          390403          403258 0.962927  2937.83       0.239197
  0.968    -301.859    -990.423    -261.073     250.972   376510   390403   403071          376510          390403          403071 0.963106  2939.24       0.240034
   0.97    -302.663    -991.691    -260.571      251.23   376195   390403   402845          376195          390403          402845 0.963528  2940.65       0.240861
  0.972    -303.462    -992.958    -260.068     251.483   375904   390403   402763          375904          390403          402763 0.964834  2942.07       0.241677
  0.974    -304.258    -994.227    -259.565      251.73   375637   390403   402702          375637          390403          402702 0.96617   2943.5       0.242482
  0.976    -305.049    -995.495    -259.061     251.972   375465   390403   402621          375465          390403          402621 0.966678  2944.93       0.243274
  0.978    -305.837    -996.765    -258.557     252.208   375329   390403   402485          375329          390403          402485 0.966559  2946.36       0.244054
   0.98    -306.621    -998.035    -258.053     252.438   375255   390403   402392          375255          390403          402392 0.96628   2947.8       0.244822
  0.982    -307.402    -999.305    -257.548     252.663   375062   390403   402286          375062          390403          402286 0.966736  2949.25       0.245576
  0.984    -308.178    -1000.58    -257.042     252.881   374799   390403   402191          374799          390403          402191 0.967737   2950.7       0.246317
  0.986    -308.951    -1001.85    -256.536     253.093   374623   390403   402118          374623          390403          402118 0.968318  2952.16       0.247044
  0.988    -309.721    -1003.12     -256.03     253.298   374366   390403   402039          374366          390403          402039 0.969426  2953.62       0.247757
   0.99    -310.486    -1004.39    -255.523     253.497   374290   390403   401900          374290          390403          401900 0.968903  2955.09       0.248455
  0.992    -311.248    -1005.67    -255.016     253.689   374186   390202   401836          374186          390202          401836 0.96904  2956.56       0.249139
  0.994    -312.007    -1006.94    -254.508     253.874   373931   390202   401636          373931          390202          401636 0.969287  2958.03       0.249807
  0.996    -312.762    -1008.21        -254     254.052   373793   390202   401574          373793          390202          401574 0.969677  2959.51        0.25046
  0.998    -313.513    -1009.49    -253.492     254.224   373611   390202   401410          373611          390202          401410 0.969714     2961       0.251097
      1    -314.261    -1010.76    -252.983     254.388   373420   390202   401322          373420          390202          401322 0.970284  2962.49       0.251718
  1.002    -315.005    -1012.04    -252.474     254.545   373366   389260   401240          373366          389260          401240 0.97002  2963.98       0.252322
  1.004    -315.746    -1013.32    -251.965     254.694   373178   389260   401145          373178          389260          401145 0.970493  2965.48        0.25291
  1.006    -316.483    -1014.59    -251.456     254.836   373128   389260   401065          373128          389260          401065 0.97018  2966.98       0.253481
  1.008    -317.217    -1015.87    -250.946     254.971   372981   389260   400985          372981          389260          400985 0.970429  2968.49       0.254035
   1.01    -317.947    -1017.15    -250.436     255.098   372825   387751   400944          372825          387751          400944 0.970948     2970       0.254571
  1.012    -318.674    -1018.43    -249.925     255.217   372708   385762   400804          372708          385762          400804 0.970631  2971.51        0.25509
  1.014    -319.397    -1019.71    -249.415     255.329   372483   385762   400670          372483          385762          400670 0.970978  2973.03       0.255592
  1.016    -320.118    -1020.99    -248.904     255.433   372185   385762   400568          372185          385762          400568 0.972009  2974.55       0.256075
  1.018    -320.834    -1022.27    -248.393      255.53   372115   385762   400349          372115          385762          400349 0.970996  2976.07       0.256541
   1.02    -321.548    -1023.55    -247.882     255.619   371991   385762   400152          371991          385762          400152 0.970438   2977.6       0.256989
  1.022    -322.258    -1024.83    -247.371       255.7   371866   385762   400038          371866          385762          400038 0.970381  2979.14       0.257419
  1.024    -322.965    -1026.11    -246.859     255.773   371729   385762   399889          371729          385762          399889 0.970208  2980.67       0.257831
  1.026    -323.668    -1027.39    -246.348     255.839   371436   384423   399780          371436          384423          399780 0.971224  2982.21       0.258225
  1.028    -324.369    -1028.67    -245.836     255.897   371366   383455   399632          371366          383455          399632 0.970672  2983.75       0.258601
   1.03    -325.066    -1029.96    -245.324     255.948   371166   383455   399514          371166          383455          399514 0.971067   2985.3       0.258959
  1.032     -325.76    -1031.24    -244.812     255.991   371029   383455   399343          371029          383455          399343 0.970798  2986.84       0.259299
  1.034     -326.45    -1032.53      -244.3     256.027   370892   383455   399168          370892          383455          399168 0.970512  2988.39       0.259621
  1.036    -327.138    -1033.81    -243.788     256.056   370680   383455   399029          370680          383455          399029 0.970919  2989.95       0.259925
  1.038    -327.822     -1035.1    -243.276     256.077   370595   383455   398815          370595          383455          398815 0.970116   2991.5       0.260213
   1.04    -328.504    -1036.38    -242.764     256.091   370485   383455   398741          370485          383455          398741 0.970309  2993.06       0.260482
  1.042    -329.182    -1037.67    -242.251     256.098   370410   383455   398658          370410          383455          398658 0.97021  2994.62       0.260735
  1.044    -329.857    -1038.95    -241.739     256.098   370309   383455   398437          370309          383455          398437 0.969404  2996.18       0.260971
  1.046    -330.529    -1040.24    -241.227     256.092   370158   383455   398153          370158          383455          398153 0.968554  2997.75        0.26119
  1.048    -331.198    -1041.53    -240.715     256.079   370070   383325   398047          370070          383325          398047 0.968425  2999.32       0.261393
   1.05    -331.863    -1042.82    -240.203     256.059   369843   383325   397915          369843          383325          397915 0.969007  3000.88        0.26158
  1.052    -332.526    -1044.11    -239.691     256.034   369735   380981   397742          369735          380981          397742 0.968595  3002.45       0.261751
  1.054    -333.186     -1045.4    -239.179     256.002   369507   380981   397438          369507          380981          397438 0.968134  3004.03       0.261906
  1.056    -333.843    -1046.69    -238.667     255.964   369382   380981   397196          369382          380981          397196 0.967481   3005.6       0.262047
  1.058    -334.497    -1047.98    -238.155     255.921   369258   380981   397039          369258          380981          397039 0.967375  3007.18       0.262173
   1.06    -335.147    -1049.27    -237.643     255.872   369142   380981   396937          369142          380981          396937 0.967565  3008.76       0.262285
  1.062    -335.795    -1050.56    -237.131     255.818   369050   380981   396772          369050          380981          396772 0.967179  3010.33       0.262383
  1.064     -336.44    -1051.85     -236.62     255.759   368995   380981   396633          368995          380981          396633 0.966698  3011.91       0.262468
  1.066    -337.083    -1053.15    -236.108     255.696   368916   380981   396557          368916          380981          396557 0.966762   3013.5        0.26254
  1.068    -337.722    -1054.44    -235.597     255.627   368824   380981   396356          368824          380981          396356 0.966072  3015.08         0.2626
   1.07    -338.358    -1055.73    -235.086     255.554   368775   380981   396219          368775          380981          396219 0.965508  3016.66       0.262648
  1.072    -338.992    -1057.03    -234.575     255.477   368698   380981   396059          368698          380981          396059 0.964957  3018.25       0.262684
  1.074    -339.623    -1058.32    -234.064     255.396   368550   380981   395922          368550          380981          395922 0.965015  3019.84        0.26271
  1.076     -340.25    -1059.62    -233.553     255.312   368367   380981   395744          368367          380981          395744 0.965041  3021.42       0.262725
  1.078    -340.876    -1060.91    -233.043     255.224   368247   380981   395581          368247          380981          395581 0.964779  3023.01       0.262731
   1.08    -341.498    -1062.21    -232.532     255.133   368203   380981   395306          368203          380981          395306 0.963275   3024.6       0.262727
  1.082    -342.117    -1063.51    -232.022     255.039   368059   380981   395045          368059          380981          395045 0.962526  3026.19       0.262715
  1.084    -342.734     -1064.8    -231.512     254.943   367892   380981   394921          367892          380981          394921 0.962859  3027.78       0.262695
  1.086    -343.348     -1066.1    -231.002     254.844   367774   380981   394830          367774          380981          394830 0.963076  3029.37       0.262667
  1.088     -343.96     -1067.4    -230.493     254.743   367532   380981   394670          367532          380981          394670 0.963661  3030.96       0.262632
   1.09    -344.568     -1068.7    -229.983      254.64   367297   380981   394544          367297          380981          394544 0.964452  3032.55       0.262591
  1.092    -345.174       -1070    -229.474     254.535   367158   380981   394394          367158          380981          394394 0.964481  3034.15       0.262544
  1.094    -345.778     -1071.3    -228.965      254.43   367065   380981   394195          367065          380981          394195 0.963866  3035.74       0.262492
  1.096    -346.378     -1072.6    -228.456     254.323   366971   380981   394051          366971          380981          394051 0.963627  3037.33       0.262435
  1.098    -346.976     -1073.9    -227.948     254.215   366834   380981   393948          366834          380981          393948 0.963912  3038.93       0.262374
    1.1    -347.572     -1075.2     -227.44     254.107   366650   380981   393805          366650          380981          393805 0.964247  3040.52        0.26231
  1.102    -348.165     -1076.5    -226.931     253.998   366430   380981   393711          366430          380981          393711 0.965138  3042.12       0.262243
  1.104    -348.755     -1077.8    -226.424     253.889   366252   380981   393615          366252          380981          393615 0.965749  3043.72       0.262173
  1.106    -349.342     -1079.1    -225.916     253.781   366125   380981   393455          366125          380981          393455 0.965631  3045.31       0.262102
  1.108    -349.928    -1080.41    -225.408     253.672   365998   380981   393396          365998          380981          393396 0.966155  3046.91        0.26203
