# n_walkers  560  n_cull  1  simple log(alpha)  -0.001784121793501292
#   T     log_Z(T)      F(T)        U(T)       Cvp(T)    low_pct_i(T) mode_i(T) high_pct_i(T) low_pct_iter(T)  mode_iter(T)   high_pct_iter(T) Z_fract(T)   V(T)   thermal_exp(T)
   0.01     62064.4    -633.883     -632.63     121.281   738376   738530   738530          738376          738530          738530 0.897812  3056.37     -0.0117765
  0.012     51500.6    -633.894    -632.388     121.328   738336   738530   738530          738336          738530          738530 0.899909  3056.31    -0.00969713
  0.014       43955    -633.906    -632.145     121.376   738293   738530   738530          738293          738530          738530 0.906718  3056.25    -0.00806621
  0.016     38295.9    -633.917    -631.902     121.429   738258   738530   738530          738258          738530          738530 0.903043  3056.21    -0.00678141
  0.018     33894.4     -633.93    -631.659     121.489   738218   738530   738530          738218          738530          738530 0.902924  3056.17    -0.00571833
   0.02     30373.1    -633.942    -631.416     121.557   738174   738530   738530          738174          738530          738530 0.904342  3056.14    -0.00480213
  0.022     27492.2    -633.955    -631.173     121.635   738125   738530   738530          738125          738530          738530 0.907675  3056.11    -0.00399554
  0.024     25091.4    -633.968     -630.93     121.721   738084   738530   738530          738084          738530          738530 0.90462  3056.09     -0.0032808
  0.026     23059.9    -633.981    -630.686     121.817   738030   738530   738530          738030          738530          738530 0.907417  3056.07    -0.00264809
  0.028     21318.7    -633.995    -630.442     121.923   737971   738530   738530          737971          738530          738530 0.911218  3056.05    -0.00208997
   0.03     19809.7    -634.009    -630.198     122.038   737914   738530   738530          737914          738530          738530 0.913051  3056.04    -0.00159932
  0.032     18489.3    -634.023    -629.954     122.163   737877   738530   738530          737877          738530          738530 0.90607  3056.04    -0.00116892
  0.034     17324.2    -634.037     -629.71     122.299   737825   738530   738530          737825          738530          738530 0.902035  3056.03   -0.000791577
  0.036     16288.6    -634.052    -629.465     122.447   737756   738530   738530          737756          738530          738530 0.902408  3056.03   -0.000460384
  0.038       15362    -634.067     -629.22     122.608   737689   738530   738530          737689          738530          738530 0.901317  3056.02   -0.000168866
   0.04     14528.1    -634.082    -628.974     122.785   737584   738530   738530          737584          738530          738530 0.908784  3056.02    8.89352e-05
  0.042     13773.6    -634.098    -628.729     122.979   737513   738530   738530          737513          738530          738530 0.906867  3056.02    0.000318473
  0.044     13087.7    -634.113    -628.483     123.195   737413   738530   738530          737413          738530          738530 0.910561  3056.03    0.000524736
  0.046     12461.5     -634.13    -628.236     123.435   737323   738530   738530          737323          738530          738530 0.910471  3056.03    0.000712315
  0.048     11887.4    -634.146    -627.989     123.703   737248   738530   738530          737248          738530          738530 0.906472  3056.04    0.000885459
   0.05     11359.3    -634.163    -627.741     124.004   737126   738527   738530          737126          738527          738530 0.909256  3056.04     0.00104813
  0.052     10871.8     -634.18    -627.493     124.345   736977   738527   738530          736977          738527          738530 0.914645  3056.05     0.00120406
  0.054     10420.4    -634.197    -627.244     124.732   736883   738527   738530          736883          738527          738530 0.910995  3056.06     0.00135676
  0.056     10001.3    -634.215    -626.994     125.172   736729   738527   738530          736729          738527          738530 0.914163  3056.07     0.00150957
  0.058     9611.09    -634.233    -626.743     125.677   736596   738527   738530          736596          738527          738530 0.91337  3056.07     0.00166566
   0.06      9246.9    -634.251    -626.491     126.257   736487   738527   738530          736487          738527          738530 0.907588  3056.09     0.00182801
  0.062     8906.21     -634.27    -626.238     126.928   736342   738527   738530          736342          738527          738530 0.90406   3056.1     0.00199939
  0.064     8586.82     -634.29    -625.983     127.709   736119   738527   738530          736119          738527          738530 0.905699  3056.11     0.00218225
  0.066     8286.79    -634.309    -625.727     128.624   735870   738527   738530          735870          738527          738530 0.907708  3056.12     0.00237859
  0.068     8004.42     -634.33    -625.469     129.705   735544   738523   738530          735544          738523          738530 0.913575  3056.14     0.00258974
   0.07     7738.19    -634.351    -625.208     130.989   735309   738523   738530          735309          738523          738530 0.910759  3056.16     0.00281601
  0.072     7486.77    -634.372    -624.944      132.53   735034   738523   738530          735034          738523          738530 0.907573  3056.17      0.0030562
  0.074     7248.94    -634.394    -624.678     134.395   734657   738523   738530          734657          738523          738530 0.908064  3056.19     0.00330709
  0.076     7023.64    -634.417    -624.407     136.671   734122   738519   738530          734122          738519          738530 0.914632  3056.21     0.00356266
  0.078      6809.9    -634.441    -624.131     139.475   733606   738518   738530          733606          738518          738530 0.91675  3056.24     0.00381341
   0.08     6606.87    -634.466    -623.848     142.959   732985   738518   738530          732985          738518          738530 0.919572  3056.26     0.00404582
  0.082     6413.75    -634.492    -623.558     147.325   732491   738518   738530          732491          738518          738530 0.912922  3056.29     0.00424249
  0.084     6229.85     -634.52    -623.258     152.834   731733   738518   738530          731733          738518          738530 0.909664  3056.31     0.00438346
  0.086     6054.51    -634.549    -622.946     159.822   730143   738518   738530          730143          738518          738530 0.927591  3056.34     0.00444996
  0.088     5887.17    -634.579    -622.618     168.702   728961   738499   738530          728961          738499          738530 0.929712  3056.37      0.0044316
   0.09     5727.29    -634.613    -622.269     179.957   727615   738499   738530          727615          738499          738530 0.929547  3056.39     0.00433818
  0.092     5574.39    -634.648    -621.896     194.084   724985   738296   738530          724985          738296          738530 0.944887  3056.42     0.00421555
  0.094     5428.03    -634.687    -621.491     211.484   722582   738296   738530          722582          738296          738530 0.952777  3056.44     0.00416175
  0.096     5287.81     -634.73    -621.048     232.267   719243   737954   738530          719243          737954          738530 0.964907  3056.47     0.00433386
  0.098     5153.36    -634.778     -620.56     255.994   716025   736978   738530          716025          736978          738530 0.972541   3056.5     0.00493044
    0.1     5024.35    -634.831    -620.023     281.457   712415   733850   738530          712415          733850          738530 0.979629  3056.53     0.00613654
  0.102     4900.45     -634.89    -619.434     306.722   709380   729945   738530          709380          729945          738530 0.982177  3056.58     0.00803925
  0.104      4781.4    -634.957    -618.797     329.579   706457   723425   738530          706457          723425          738530 0.984176  3056.63      0.0105582
  0.106     4666.91    -635.032    -618.119     348.344   704439   723425   738530          704439          723425          738530 0.980839  3056.71      0.0134549
  0.108     4556.74    -635.115    -617.407      362.52   701377   718952   738530          701377          718952          738530 0.980302   3056.8      0.0164437
   0.11     4450.66    -635.208    -616.671     372.819   697905   716528   737914          697905          716528          737914 0.980758  3056.91      0.0193385
  0.112     4348.45     -635.31    -615.917     380.492   695136   716472   734618          695136          716472          734618 0.971137  3057.03      0.0221339
  0.114      4249.9     -635.42     -615.15     386.493   692149   710991   731500          692149          710991          731500 0.968702  3057.18      0.0249701
  0.116     4154.84    -635.541    -614.372     391.087   690127   708959   728901          690127          708959          728901 0.965052  3057.34       0.028027
  0.118     4063.08     -635.67    -613.587     394.091   687511   707133   726240          687511          707133          726240 0.964705  3057.52      0.0314264
   0.12     3974.45    -635.809    -612.797     395.463   684742   705886   724278          684742          705886          724278 0.967351  3057.72      0.0351981
  0.122     3888.81    -635.957    -612.006     395.709   682267   699330   721276          682267          699330          721276 0.963881  3057.95      0.0393094
  0.124        3806    -636.115    -611.214     395.816   679771   699330   718957          679771          699330          718957 0.964134  3058.21      0.0437141
  0.126     3725.89    -636.281    -610.422      396.78   676951   696306   716615          676951          696306          716615 0.964925  3058.49      0.0483779
  0.128     3648.35    -636.455    -609.626     399.087   674473   692298   713788          674473          692298          713788 0.962368   3058.8      0.0532617
   0.13     3573.26    -636.639    -608.825     402.463   672024   692298   711491          672024          692298          711491 0.962819  3059.14      0.0582788
  0.132     3500.52    -636.831    -608.016     405.997   669387   692298   709484          669387          692298          709484 0.965954  3059.51      0.0632599
  0.134     3430.01    -637.032    -607.202     408.559   666629   688791   707507          666629          688791          707507 0.969634  3059.91      0.0679583
  0.136     3361.64    -637.242    -606.383     409.304   664629   684053   704343          664629          684053          704343 0.965064  3060.34      0.0721082
  0.138     3295.31     -637.46    -605.566      408.03   662090   681748   701862          662090          681748          701862 0.966304  3060.79      0.0755167
   0.14     3230.94    -637.686    -604.752     405.238   660208   679592   700346          660208          679592          700346 0.968667  3061.26      0.0781457
  0.142     3168.44    -637.921    -603.945     401.913   658425   674048   698301          658425          674048          698301 0.966387  3061.75      0.0801411
  0.144     3107.73    -638.163    -603.144      399.17   656463   674048   695638          656463          674048          695638 0.961636  3062.24      0.0817939
  0.146     3048.73    -638.413    -602.348     397.902   653309   674048   693566          653309          674048          693566 0.964756  3062.75      0.0834489
  0.148     2991.39    -638.671    -601.551     398.553   650841   670763   690766          650841          670763          690766 0.962815  3063.27      0.0853986
   0.15     2935.62    -638.937    -600.752     401.031   649015   670260   688979          649015          670260          688979 0.964011   3063.8      0.0877955
  0.152     2881.37    -639.209    -599.946     404.761   646465   667822   686727          646465          667822          686727 0.966476  3064.34      0.0906125
  0.154     2828.57     -639.49    -599.133     408.875   644646   665125   684660          644646          665125          684660 0.9659  3064.91       0.093665
  0.156     2777.18    -639.778    -598.311      412.48   642934   661655   682752          642934          661655          682752 0.965322  3065.49      0.0966912
  0.158     2727.14    -640.073    -597.484     414.938   640606   661655   681011          640606          661655          681011 0.966712  3066.09      0.0994621
   0.16     2678.39    -640.376    -596.652     416.067   638584   660560   678770          638584          660560          678770 0.965177  3066.71       0.101875
  0.162     2630.89    -640.686     -595.82     416.169   636619   653399   677062          636619          653399          677062 0.964638  3067.34       0.103994
  0.164      2584.6    -641.004    -594.988     415.882   634006   653399   675017          634006          653399          675017 0.96604  3067.99        0.10601
  0.166     2539.46    -641.328    -594.156     415.929   632282   650844   672755          632282          650844          672755 0.962536  3068.64       0.108159
  0.168     2495.45     -641.66    -593.324     416.839   630507   650049   671017          630507          650049          671017 0.96233  3069.32       0.110611
   0.17     2452.51    -641.999    -592.488     418.766   628414   646814   668784          628414          646814          668784 0.960256     3070       0.113393
  0.172     2410.61    -642.345    -591.648     421.425   625817   646814   666857          625817          646814          666857 0.96273  3070.71       0.116357
  0.174     2369.71    -642.698    -590.802     424.164   623550   646814   665153          623550          646814          665153 0.966163  3071.43       0.119207
  0.176     2329.78    -643.058    -589.952     426.145   621451   646814   663338          621451          646814          663338 0.968764  3072.17       0.121572
  0.178     2290.79    -643.425    -589.099     426.569   619725   644013   661855          619725          644013          661855 0.971365  3072.92       0.123104
   0.18      2252.7    -643.799    -588.247     424.886   618266   639137   659630          618266          639137          659630 0.969765  3073.68        0.12357
  0.182     2215.49     -644.18    -587.401     420.925   617360   633425   657345          617360          633425          657345 0.965432  3074.44       0.122908
  0.184     2179.12    -644.567    -586.565      414.91   615831   633425   655319          615831          633425          655319 0.964417  3075.19       0.121235
  0.186     2143.57     -644.96    -585.742     407.377   614138   631565   653792          614138          631565          653792 0.96598  3075.93       0.118805
  0.188     2108.81     -645.36    -584.936     399.034   612223   631565   652255          612223          631565          652255 0.968612  3076.65       0.115948
   0.19     2074.81    -645.766    -584.146     390.609   610712   626358   650692          610712          626358          650692 0.969543  3077.36       0.112999
  0.192     2041.55    -646.177    -583.373     382.743   609862   626358   648581          609862          626358          648581 0.964881  3078.05       0.110247
  0.194        2009    -646.594    -582.615     375.922   608527   623738   646980          608527          623738          646980 0.96469  3078.72       0.107907
  0.196     1977.15    -647.017    -581.868     370.463   607481   623720   644664          607481          623720          644664 0.959854  3079.38       0.106113
  0.198     1945.96    -647.444    -581.132     366.524   606213   623720   642472          606213          623720          642472 0.956338  3080.02       0.104923
    0.2     1915.42    -647.876    -580.401      364.14   604533   621028   641012          604533          621028          641012 0.958765  3080.67       0.104338
  0.202     1885.51    -648.313    -579.674     363.257   603219   621028   639540          603219          621028          639540 0.958525  3081.31        0.10432
  0.204     1856.21    -648.755    -578.947     363.763   601756   621028   637557          601756          621028          637557 0.956204  3081.96       0.104806
  0.206     1827.51    -649.202    -578.218     365.515   600126   621028   636599          600126          621028          636599 0.959725   3082.6       0.105722
  0.208     1799.38    -649.654    -577.485     368.356   598285   619144   635680          598285          619144          635680 0.963601  3083.26       0.106995
   0.21      1771.8     -650.11    -576.744     372.123   596733   612862   634581          596733          612862          634581 0.964965  3083.92       0.108552
  0.212     1744.77    -650.571    -575.996     376.653   595022   612862   633384          595022          612862          633384 0.966399   3084.6        0.11033
  0.214     1718.27    -651.037    -575.237     381.781   593918   612494   631928          593918          612494          631928 0.964024  3085.29       0.112268
  0.216     1692.28    -651.508    -574.468     387.338   592459   612494   630131          592459          612494          630131 0.960938  3085.99       0.114311
  0.218     1666.79    -651.984    -573.688     393.151   591221   610718   629018          591221          610718          629018 0.960211   3086.7       0.116405
   0.22     1641.79    -652.465    -572.895     399.041   589083   610718   627806          589083          610718          627806 0.962641  3087.42       0.118493
  0.222     1617.26     -652.95    -572.092     404.827   587018   610718   626932          587018          610718          626932 0.966484  3088.16       0.120518
  0.224     1593.19    -653.442    -571.276     410.329   585035   610718   626379          585035          610718          626379 0.971562  3088.91       0.122422
  0.226     1569.57    -653.938    -570.451     415.375   583892   604526   625081          583892          604526          625081 0.969448  3089.67       0.124147
  0.228     1546.39    -654.439    -569.615     419.807   581809   603041   623896          581809          603041          623896 0.972191  3090.44       0.125637
   0.23     1523.63    -654.946    -568.772     423.493   580642   603041   622805          580642          603041          622805 0.971745  3091.23       0.126843
  0.232     1501.29    -655.458    -567.922     426.331   579400   598146   621457          579400          598146          621457 0.970445  3092.01       0.127727
  0.234     1479.35    -655.975    -567.067     428.259   578237   597027   619806          578237          597027          619806 0.967616   3092.8       0.128262
  0.236     1457.81    -656.498    -566.209      429.26   576833   595297   618110          576833          595297          618110 0.965578   3093.6       0.128436
  0.238     1436.65    -657.025    -565.351     429.364   575002   595297   616402          575002          595297          616402 0.966406  3094.39       0.128255
   0.24     1415.87    -657.558    -564.493     428.649   573522   595297   615175          573522          595297          615175 0.968153  3095.19       0.127736
  0.242     1395.45    -658.096    -563.637     427.231   572630   594608   614384          572630          594608          614384 0.968587  3095.97       0.126911
  0.244     1375.38     -658.64    -562.784     425.259   570962   594608   613164          570962          594608          613164 0.970137  3096.76       0.125822
  0.246     1355.67    -659.188    -561.936     422.902   569945   586016   611642          569945          586016          611642 0.967584  3097.53       0.124515
  0.248     1336.29    -659.741    -561.093     420.333   568758   586016   609728          568758          586016          609728 0.96421   3098.3       0.123037
   0.25     1317.24    -660.299    -560.254     417.717   567687   586016   608018          567687          586016          608018 0.961647  3099.06       0.121435
  0.252     1298.51    -660.862    -559.422     415.199   565978   586016   606539          565978          586016          606539 0.963468   3099.8        0.11975
  0.254     1280.09    -661.429    -558.594     412.898   564816   586016   605262          564816          586016          605262 0.963879  3100.54       0.118018
  0.256     1261.98    -662.001     -557.77     410.899   563633   582067   603866          563633          582067          603866 0.963361  3101.27       0.116267
  0.258     1244.17    -662.578     -556.95     409.256   562661   582066   602338          562661          582066          602338 0.961209  3101.98       0.114522
   0.26     1226.65    -663.159    -556.133     407.992   560825   581842   601282          560825          581842          601282 0.965525  3102.69       0.112799
  0.262     1209.42    -663.744    -555.317     407.104   559989   581842   599936          559989          581842          599936 0.963903  3103.38       0.111114
  0.264     1192.46    -664.334    -554.504      406.57   558935   575712   599025          558935          575712          599025 0.96458  3104.07        0.10948
  0.266     1175.77    -664.928    -553.691     406.354   557905   574242   597525          557905          574242          597525 0.961808  3104.74       0.107908
  0.268     1159.35    -665.527    -552.878     406.412   556280   574242   596225          556280          574242          596225 0.963202  3105.41       0.106407
   0.27     1143.19     -666.13    -552.065     406.697   555181   574242   595096          555181          574242          595096 0.962828  3106.06       0.104987
  0.272     1127.28    -666.737    -551.251      407.16   553712   574242   593498          553712          574242          593498 0.962068  3106.71       0.103658
  0.274     1111.62    -667.348    -550.436     407.756   552282   574242   592418          552282          574242          592418 0.96419  3107.35       0.102424
  0.276      1096.2    -667.963     -549.62     408.443   550992   574242   591268          550992          574242          591268 0.96541  3107.99       0.101291
  0.278     1081.02    -668.583    -548.803     409.181   549686   569453   590277          549686          569453          590277 0.967359  3108.61       0.100257
   0.28     1066.07    -669.207    -547.984     409.936   548865   566649   589301          548865          566649          589301 0.966918  3109.23      0.0993199
  0.282     1051.34    -669.835    -547.163     410.678   547908   566649   587923          547908          566649          587923 0.965014  3109.85      0.0984712
  0.284     1036.84    -670.467    -546.341     411.383   546412   566649   587131          546412          566649          587131 0.968153  3110.46      0.0976987
  0.286     1022.56    -671.103    -545.517     412.031   545530   565372   586186          545530          565372          586186 0.967662  3111.06      0.0969868
  0.288     1008.48    -671.743    -544.693     412.609   544828   565372   585238          544828          565372          585238 0.965908  3111.67       0.096317
   0.29     994.619    -672.388    -543.867     413.115   543629   560840   583676          543629          560840          583676 0.963687  3112.26      0.0956685
  0.292     980.959    -673.036     -543.04     413.549   542425   560840   582873          542425          560840          582873 0.964543  3112.86      0.0950195
  0.294     967.498    -673.688    -542.213     413.923   541009   560840   581776          541009          560840          581776 0.965032  3113.45      0.0943477
  0.296     954.233    -674.345    -541.385     414.254   539291   560840   580315          539291          560840          580315 0.965953  3114.03      0.0936309
  0.298     941.159    -675.005    -540.556     414.565   538156   560840   579203          538156          560840          579203 0.966462  3114.61      0.0928476
    0.3     928.272    -675.669    -539.726     414.882   537184   556602   577909          537184          556602          577909 0.965483  3115.19      0.0919771
  0.302      915.57    -676.338    -538.896     415.235   536262   556602   577084          536262          556602          577084 0.966171  3115.76      0.0909995
  0.304     903.047     -677.01    -538.065     415.654   535038   553151   576030          535038          553151          576030 0.967208  3116.32      0.0898959
  0.306     890.701    -677.686    -537.234     416.168   534429   553151   575175          534429          553151          575175 0.965908  3116.88      0.0886487
  0.308     878.527    -678.366    -536.401     416.811   533599   552893   574243          533599          552893          574243 0.964872  3117.43      0.0872413
   0.31     866.524     -679.05    -535.566     417.616   532317   552442   572414          532317          552442          572414 0.961929  3117.97      0.0856585
  0.312     854.686    -679.737     -534.73     418.622   531146   551072   571601          531146          551072          571601 0.963279  3118.49      0.0838871
  0.314     843.011    -680.429    -533.892     419.873   529949   551072   570532          529949          551072          570532 0.963572  3119.01      0.0819155
  0.316     831.496    -681.124     -533.05     421.426   528942   551072   569621          528942          551072          569621 0.963712  3119.52      0.0797343
  0.318     820.138    -681.823    -532.206     423.349   527868   546222   568667          527868          546222          568667 0.963611  3120.01      0.0773359
   0.32     808.934    -682.526    -531.357     425.728   526727   546222   567536          526727          546222          567536 0.962639  3120.48      0.0747136
  0.322     797.881    -683.233    -530.502     428.665   525562   546222   566784          525562          546222          566784 0.963225  3120.94      0.0718606
  0.324     786.977    -683.943    -529.642     432.282   524571   546222   565781          524571          546222          565781 0.961577  3121.38      0.0687678
  0.326     776.218    -684.658    -528.773     436.722   523570   546222   564774          523570          546222          564774 0.959275   3121.8      0.0654213
  0.328     765.602    -685.376    -527.894     442.144   521297   538966   563493          521297          538966          563493 0.961124  3122.19      0.0617983
   0.33     755.126    -686.098    -527.003      448.73   520144   538966   562294          520144          538966          562294 0.959039  3122.57      0.0578627
  0.332     744.789    -686.824    -526.098     456.676   518952   538966   561441          518952          538966          561441 0.958062  3122.92      0.0535588
  0.334     734.588    -687.555    -525.176     466.199   517287   538966   560247          517287          538966          560247 0.957647  3123.24      0.0488047
  0.336      724.52    -688.289    -524.232     477.538   516136   538890   558535          516136          538890          558535 0.95278  3123.52      0.0434832
  0.338     714.584    -689.028    -523.264     490.952   514309   537626   557756          514309          537626          557756 0.955034  3123.78      0.0374315
   0.34     704.779    -689.771    -522.267     506.735   512737   537616   557159          512737          537616          557159 0.956325  3123.99      0.0304296
  0.342     695.101    -690.518    -521.235     525.219   510874   537616   556557          510874          537616          556557 0.957814  3124.15      0.0221862
  0.344     685.549    -691.271    -520.164     546.784   509184   535249   555551          509184          535249          555551 0.956087  3124.26       0.012325
  0.346     676.122    -692.028    -519.046     571.868   506596   535249   554582          506596          535249          554582 0.957231   3124.3    0.000370858
  0.348     666.819    -692.791    -517.874     600.967   504373   535249   553811          504373          535249          553811 0.957775  3124.26     -0.0142594
   0.35     657.637    -693.559    -516.639     634.618   502217   529552   553176          502217          529552          553176 0.957236  3124.12     -0.0322563
  0.352     648.577    -694.333    -515.332     673.356   499475   529552   552107          499475          529552          552107 0.956252  3123.85     -0.0543982
  0.354     639.637    -695.113    -513.942     717.627   496008   529552   551148          496008          529552          551148 0.957733  3123.43     -0.0815003
  0.356     630.816      -695.9    -512.458     767.641   492349   529552   550076          492349          529552          550076 0.958716  3122.82      -0.114318
  0.358     622.114    -696.694    -510.868     823.158   487912   521333   548960          487912          521333          548960 0.961283  3121.99      -0.153392
   0.36     613.531    -697.496    -509.162     883.231   482452   521333   547733          482452          521333          547733 0.967303  3120.89      -0.198831
  0.362     605.066    -698.307    -507.333     945.944   478457   518378   546770          478457          518378          546770 0.971644  3119.49      -0.250056
  0.364     596.719    -699.127    -505.378     1008.25   475849   518378   544983          475849          518378          544983 0.970134  3117.76      -0.305569
  0.366      588.49    -699.956    -503.303     1066.04   472454   517394   543683          472454          517394          543683 0.972547  3115.68      -0.362839
  0.368     580.379    -700.796     -501.12     1114.54   468685   513550   542300          468685          513550          542300 0.9758  3113.24      -0.418411
   0.37     572.384    -701.647    -498.854     1149.08   465598   513519   541251          465598          513519          541251 0.978969  3110.48       -0.46833
  0.372     564.505    -702.509    -496.536     1166.01   463012   505560   540089          463012          505560          540089 0.981093  3107.44      -0.508813
  0.374     556.741    -703.382    -494.203     1163.61   460197   505560   538600          460197          505560          538600 0.983257  3104.18      -0.537001
  0.376     549.089    -704.266    -491.894     1142.43   458464   483718   535778          458464          483718          535778 0.981559   3100.8       -0.55153
  0.378     541.546    -705.161    -489.644     1105.18   457209   481069   531937          457209          481069          531937 0.97738  3097.37      -0.552726
   0.38      534.11    -706.066    -487.481        1056   456261   479127   528595          456261          479127          528595 0.973941  3093.97      -0.542353
  0.382     526.778    -706.982    -485.425     999.541   455610   479127   523405          455610          479127          523405 0.965404  3090.68       -0.52308
  0.384     519.546    -707.906    -483.485     940.166   454353   479127   521346          454353          479127          521346 0.967813  3087.52      -0.497861
  0.386     512.412    -708.839    -481.664     881.374   453237   479127   517626          453237          479127          517626 0.964435  3084.53      -0.469431
  0.388     505.371     -709.78    -479.957     825.606   452393   479080   514474          452393          479080          514474 0.962439  3081.73      -0.440005
   0.39     498.421    -710.728    -478.358     774.298   450720   479080   510244          450720          479080          510244 0.960023  3079.11      -0.411177
  0.392     491.559    -711.683    -476.857     728.072   449102   479080   507280          449102          479080          507280 0.962829  3076.66      -0.383954
  0.394     484.783    -712.644    -475.443     686.981   448579   472871   504871          448579          472871          504871 0.963021  3074.38      -0.358874
  0.396     478.089    -713.611    -474.106     650.721   448152   467620   501261          448152          467620          501261 0.958984  3072.24       -0.33613
  0.398     471.476    -714.583    -472.837     618.812   446892   467620   498576          446892          467620          498576 0.960263  3070.24      -0.315698
    0.4     464.942    -715.561    -471.628     590.709   446291   464600   496630          446291          464600          496630 0.961077  3068.36      -0.297423
  0.402     458.485    -716.543    -470.472      565.88   445610   464600   494027          445610          464600          494027 0.959327  3066.59      -0.281091
  0.404     452.103    -717.529    -469.363     543.841   444855   464600   491805          444855          464600          491805 0.95894  3064.91      -0.266473
  0.406     445.794     -718.52    -468.295     524.176   444392   464600   490389          444392          464600          490389 0.959998  3063.32      -0.253344
  0.408     439.556    -719.514    -467.264     506.536   443446   464600   488917          443446          464600          488917  0.962   3061.8      -0.241505
   0.41     433.389    -720.513    -466.268     490.632   442947   459521   486989          442947          459521          486989 0.960207  3060.36      -0.230778
  0.412      427.29    -721.515    -465.301     476.232   442467   459521   485946          442467          459521          485946 0.961485  3058.98      -0.221015
  0.414     421.258     -722.52    -464.362     463.143   441990   459521   484874          441990          459521          484874 0.961952  3057.65      -0.212089
  0.416     415.293    -723.529    -463.448     451.211   441345   459521   483743          441345          459521          483743 0.962499  3056.38      -0.203896
  0.418     409.392    -724.541    -462.556     440.304   440575   459521   482632          440575          459521          482632 0.963474  3055.16      -0.196348
   0.42     403.555    -725.556    -461.686     430.315   440255   457224   481394          440255          457224          481394 0.961767  3053.98      -0.189369
  0.422      397.78    -726.574    -460.834     421.149   439643   456335   480445          439643          456335          480445 0.962186  3052.84      -0.182898
  0.424     392.066    -727.595    -460.001     412.725   439231   456335   479468          439231          456335          479468 0.96141  3051.75       -0.17688
  0.426     386.412    -728.618    -459.183     404.973   438048   456335   478057          438048          456335          478057 0.96231  3050.68      -0.171268
  0.428     380.818    -729.644     -458.38     397.829   437588   456335   476893          437588          456335          476893 0.961403  3049.66       -0.16602
   0.43     375.281    -730.673    -457.591     391.235   436951   456335   475999          436951          456335          475999 0.962465  3048.66      -0.161102
  0.432     369.802    -731.705    -456.815     385.142   436366   456335   475106          436366          456335          475106 0.963273  3047.69      -0.156479
  0.434     364.379    -732.739    -456.051     379.502   435938   449678   473857          435938          449678          473857 0.961649  3046.75      -0.152123
  0.436     359.011    -733.775    -455.297     374.274   435750   449678   472963          435750          449678          472963 0.960358  3045.84      -0.148008
  0.438     353.697    -734.813    -454.553     369.421   434991   449463   471810          434991          449463          471810 0.960476  3044.95      -0.144109
   0.44     348.437    -735.854    -453.819     364.909   434571   449463   471070          434571          449463          471070 0.960831  3044.08      -0.140405
  0.442      343.23    -736.897    -453.093     360.707   434309   449463   469786          434309          449463          469786 0.957512  3043.24      -0.136876
  0.444     338.074    -737.943    -452.376     356.789   433723   449463   469351          433723          449463          469351 0.960078  3042.41      -0.133503
  0.446     332.969     -738.99    -451.666      353.13   433481   449463   468754          433481          449463          468754 0.959647  3041.61      -0.130271
  0.448     327.915     -740.04    -450.963     349.707   432846   449463   468047          432846          449463          468047 0.960625  3040.83      -0.127164
   0.45      322.91    -741.091    -450.267     346.502   432292   449103   467463          432292          449103          467463 0.961679  3040.06      -0.124167
  0.452     317.954    -742.145    -449.577     343.494   431847   449103   466704          431847          449103          466704 0.961288  3039.32      -0.121268
  0.454     313.046      -743.2    -448.893      340.67   431529   449103   466234          431529          449103          466234 0.961537  3038.59      -0.118455
  0.456     308.185    -744.258    -448.214     338.012   430730   449103   465499          430730          449103          465499 0.962843  3037.88      -0.115718
  0.458     303.371    -745.317    -447.541     335.508   430249   445201   465074          430249          445201          465074 0.964222  3037.18      -0.113045
   0.46     298.602    -746.378    -446.872     333.146   429849   445201   464423          429849          445201          464423 0.963888  3036.51      -0.110428
  0.462     293.879    -747.441    -446.208     330.914   429628   445201   463508          429628          445201          463508 0.961201  3035.84      -0.107859
  0.464     289.201    -748.506    -445.548     328.802   428760   445201   462930          428760          445201          462930 0.96382   3035.2       -0.10533
  0.466     284.567    -749.573    -444.893     326.799   428542   445201   462279          428542          445201          462279 0.962654  3034.56      -0.102835
  0.468     279.976    -750.642    -444.241     324.899   428044   445201   461811          428044          445201          461811 0.963865  3033.95      -0.100366
   0.47     275.428    -751.712    -443.593     323.092   427487   445201   461391          427487          445201          461391 0.965562  3033.35     -0.0979204
  0.472     270.922    -752.784    -442.949     321.372   427160   443475   461036          427160          443475          461036 0.966297  3032.76     -0.0954921
  0.474     266.458    -753.858    -442.308     319.732   426852   443475   460502          426852          443475          460502 0.965807  3032.19     -0.0930775
  0.476     262.035    -754.933     -441.67     318.167   426354   443475   460022          426354          443475          460022 0.966568  3031.63     -0.0906733
  0.478     257.652     -756.01    -441.035     316.672   425975   443475   459630          425975          443475          459630 0.967137  3031.09     -0.0882769
   0.48     253.309    -757.089    -440.403     315.243   425626   440644   459064          425626          440644          459064 0.966554  3030.56     -0.0858862
  0.482     249.006    -758.169    -439.774     313.877   425231   437730   458533          425231          437730          458533 0.966468  3030.05     -0.0834997
  0.484     244.741    -759.251    -439.147     312.569   424797   437730   457798          424797          437730          457798 0.965469  3029.55     -0.0811162
  0.486     240.515    -760.335    -438.524     311.319   424666   437730   457341          424666          437730          457341 0.96426  3029.06     -0.0787349
  0.488     236.327     -761.42    -437.902     310.123   424424   437730   456752          424424          437730          456752 0.962722  3028.59     -0.0763557
   0.49     232.176    -762.506    -437.283     308.981   424159   437730   456368          424159          437730          456368 0.962319  3028.14     -0.0739783
  0.492     228.062    -763.595    -436.666     307.892   423627   437730   455467          423627          437730          455467 0.960543   3027.7      -0.071603
  0.494     223.985    -764.684    -436.051     306.854   423252   437730   454956          423252          437730          454956 0.960198  3027.27     -0.0692303
  0.496     219.943    -765.776    -435.439     305.868   422649   437730   454505          422649          437730          454505 0.961466  3026.86     -0.0668608
  0.498     215.937    -766.868    -434.828     304.934   422230   437730   453826          422230          437730          453826 0.960464  3026.46      -0.064495
    0.5     211.966    -767.963    -434.219      304.05   421997   437730   453510          421997          437730          453510 0.960458  3026.08     -0.0621337
  0.502      208.03    -769.058    -433.612     303.218   421742   437730   453196          421742          437730          453196 0.960336  3025.71     -0.0597777
  0.504     204.127    -770.155    -433.006     302.438   420979   437730   452768          420979          437730          452768 0.962342  3025.35     -0.0574278
  0.506     200.258    -771.254    -432.402     301.708   420410   437730   452269          420410          437730          452269 0.963068  3025.01     -0.0550846
  0.508     196.423    -772.354    -431.799     301.029   420086   434998   451662          420086          434998          451662 0.961939  3024.69     -0.0527489
   0.51     192.621    -773.456    -431.198     300.401   419451   434998   451355          419451          434998          451355 0.964229  3024.38     -0.0504213
  0.512      188.85    -774.558    -430.598     299.824   419163   434998   451076          419163          434998          451076 0.96468  3024.08     -0.0481023
  0.514     185.113    -775.663    -429.998     299.296   418779   434643   450852          418779          434643          450852 0.965803  3023.79     -0.0457923
  0.516     181.406    -776.768      -429.4     298.816   418429   434643   450508          418429          434643          450508 0.966007  3023.52     -0.0434917
  0.518     177.731    -777.876    -428.803     298.383   418104   434643   450055          418104          434643          450055 0.965443  3023.27     -0.0412008
   0.52     174.087    -778.984    -428.207     297.995   417784   434643   449849          417784          434643          449849 0.966074  3023.03     -0.0389197
  0.522     170.474    -780.094    -427.611      297.65   417227   432173   449568          417227          432173          449568 0.967565   3022.8     -0.0366487
  0.524      166.89    -781.205    -427.016     297.347   416708   430364   449143          416708          430364          449143 0.968125  3022.58     -0.0343878
  0.526     163.337    -782.318    -426.422     297.081   416279   430364   448282          416279          430364          448282 0.965987  3022.38     -0.0321371
  0.528     159.813    -783.431    -425.828     296.851   416068   430364   447749          416068          430364          447749 0.964604  3022.19     -0.0298966
   0.53     156.318    -784.547    -425.234     296.653   415763   430364   447479          415763          430364          447479 0.965158  3022.02     -0.0276662
  0.532     152.852    -785.663    -424.641     296.484   415236   430364   447157          415236          430364          447157 0.966676  3021.86     -0.0254459
  0.534     149.414    -786.781    -424.048     296.339   414961   430301   446896          414961          430301          446896 0.967098  3021.71     -0.0232359
  0.536     146.004      -787.9    -423.456     296.216   414638   428815   446324          414638          428815          446324 0.966019  3021.58     -0.0210361
  0.538     142.622    -789.021    -422.864     296.109   414424   428815   445911          414424          428815          445911 0.965207  3021.46     -0.0188466
   0.54     139.268    -790.143    -422.271     296.016   414070   428815   445561          414070          428815          445561 0.965531  3021.35     -0.0166675
  0.542     135.941    -791.266    -421.679     295.932   413873   428815   445326          413873          428815          445326 0.965536  3021.26     -0.0144989
  0.544     132.641     -792.39    -421.088     295.853   413619   428815   444807          413619          428815          444807 0.964096  3021.18     -0.0123411
  0.546     129.367    -793.516    -420.496     295.775   413368   428815   444254          413368          428815          444254 0.962508  3021.11     -0.0101942
  0.548     126.119    -794.643    -419.905     295.695   412983   428774   443986          412983          428774          443986 0.963327  3021.05    -0.00805869
   0.55     122.898    -795.771    -419.313     295.608   412658   428774   443666          412658          428774          443666 0.963438  3021.01    -0.00593477
  0.552     119.702    -796.901    -418.722     295.512   412271   428774   443482          412271          428774          443482 0.964722  3020.98    -0.00382286
  0.554     116.531    -798.032    -418.131     295.404   411786   427520   443039          411786          427520          443039 0.965011  3020.96    -0.00172335
  0.556     113.386    -799.164    -417.541      295.28   411482   427520   442570          411482          427520          442570 0.964184  3020.96    0.000363352
  0.558     110.265    -800.297     -416.95     295.139   411027   427520   442330          411027          427520          442330 0.96561  3020.97     0.00243681
   0.56     107.169    -801.432     -416.36     294.979   410644   427520   441856          410644          427520          441856 0.965274  3020.99      0.0044966
  0.562     104.097    -802.568     -415.77     294.797   410224   427520   441574          410224          427520          441574 0.966294  3021.02     0.00654233
  0.564      101.05    -803.705    -415.181     294.593   409967   427520   441271          409967          427520          441271 0.966244  3021.07     0.00857362
  0.566     98.0254    -804.843    -414.592     294.366   409314   424932   441030          409314          424932          441030 0.968763  3021.13      0.0105901
  0.568     95.0248    -805.983    -414.003     294.115   409095   424932   440740          409095          424932          440740 0.968635   3021.2      0.0125916
   0.57     92.0473    -807.124    -413.415      293.84   408893   424932   440162          408893          424932          440162 0.966822  3021.28      0.0145778
  0.572     89.0928    -808.266    -412.828     293.543   408509   424932   439819          408509          424932          439819 0.967334  3021.37      0.0165486
  0.574      86.161    -809.409    -412.241     293.223   408298   424932   439541          408298          424932          439541 0.967177  3021.48      0.0185039
  0.576     83.2517    -810.553    -411.655     292.881   407835   424932   439179          407835          424932          439179 0.967944   3021.6      0.0204437
  0.578     80.3646    -811.699     -411.07      292.52   407690   422243   438971          407690          422243          438971 0.967774  3021.73      0.0223683
   0.58     77.4994    -812.846    -410.485      292.14   407456   420285   438682          407456          420285          438682 0.967537  3021.87      0.0242777
  0.582      74.656    -813.994    -409.901     291.744   406926   419350   438414          406926          419350          438414 0.968973  3022.02      0.0261723
  0.584     71.8341    -815.143    -409.318     291.334   406784   419350   438119          406784          419350          438119 0.968158  3022.18      0.0280525
  0.586     69.0334    -816.294    -408.736     290.911   406263   419350   437804          406263          419350          437804 0.969358  3022.36      0.0299187
  0.588     66.2538    -817.445    -408.154     290.478   406036   419350   437166          406036          419350          437166 0.967204  3022.54      0.0317716
   0.59      63.495    -818.598    -407.574     290.038   405812   419350   436976          405812          419350          436976 0.967537  3022.74      0.0336118
  0.592     60.7567    -819.752    -406.994     289.592   405607   419350   436546          405607          419350          436546 0.966336  3022.95        0.03544
  0.594     58.0389    -820.907    -406.416     289.144   405274   419350   436185          405274          419350          436185 0.966255  3023.17       0.037257
  0.596     55.3412    -822.063    -405.838     288.695   404909   419350   435802          404909          419350          435802 0.966282   3023.4      0.0390636
  0.598     52.6634     -823.22    -405.261     288.248   404772   419350   435520          404772          419350          435520 0.965599  3023.64      0.0408606
    0.6     50.0054    -824.379    -404.685     287.805   404581   419350   435229          404581          419350          435229 0.965045   3023.9      0.0426488
  0.602     47.3668    -825.538     -404.11     287.367   404298   416472   434998          404298          416472          434998 0.965309  3024.16      0.0444293
  0.604     44.7476    -826.699    -403.535     286.937   404165   416472   434583          404165          416472          434583 0.963567  3024.43      0.0462027
  0.606     42.1475    -827.861    -402.962     286.516   403822   416472   434041          403822          416472          434041 0.962313  3024.72      0.0479698
  0.608     39.5663    -829.023    -402.389     286.105   403392   416472   433823          403392          416472          433823 0.963595  3025.01      0.0497316
   0.61     37.0039    -830.187    -401.817     285.706   403167   416472   433320          403167          416472          433320 0.961961  3025.32      0.0514886
  0.612     34.4599    -831.352    -401.246     285.319   402769   416472   433062          402769          416472          433062 0.962936  3025.64      0.0532415
  0.614     31.9343    -832.518    -400.676     284.944   402677   416472   432715          402677          416472          432715 0.961362  3025.96      0.0549909
  0.616     29.4269    -833.686    -400.107     284.584   402348   416472   432418          402348          416472          432418 0.961542   3026.3      0.0567371
  0.618     26.9374    -834.854    -399.538     284.236   401933   416472   432178          401933          416472          432178 0.962568  3026.65      0.0584805
   0.62     24.4656    -836.023     -398.97     283.901   401361   416472   431748          401361          416472          431748 0.963508  3027.01      0.0602212
  0.622     22.0115    -837.194    -398.402     283.579   401221   415263   431397          401221          415263          431397 0.962398  3027.38      0.0619594
  0.624     19.5748    -838.365    -397.835     283.269   400919   415263   431104          400919          415263          431104 0.962576  3027.76       0.063695
  0.626     17.1553    -839.538    -397.269      282.97   400542   415177   430867          400542          415177          430867 0.963582  3028.15      0.0654277
  0.628     14.7529    -840.711    -396.703     282.681   399887   415177   430623          399887          415177          430623 0.966384  3028.55      0.0671571
   0.63     12.3674    -841.886    -396.138     282.401   399729   415177   430417          399729          415177          430417 0.966372  3028.97      0.0688828
  0.632     9.99862    -843.061    -395.574     282.127   399527   415177   430111          399527          415177          430111 0.965934  3029.39      0.0706041
  0.634     7.64641    -844.238     -395.01     281.859   399254   415177   429751          399254          415177          429751 0.965621  3029.82        0.07232
  0.636      5.3106    -845.415    -394.446     281.595   398853   415177   429401          398853          415177          429401 0.966274  3030.26      0.0740298
  0.638     2.99102    -846.594    -393.883     281.333   398611   415160   429182          398611          415160          429182 0.966763  3030.72      0.0757322
   0.64     0.68752    -847.774    -393.321      281.07   398357   415160   429019          398357          415160          429019 0.967624  3031.18       0.077426
  0.642    -1.60006    -848.954    -392.759     280.805   398132   414680   428865          398132          414680          428865 0.968303  3031.66      0.0791098
  0.644    -3.87187    -850.136    -392.198     280.535   397728   414680   428600          397728          414680          428600 0.969344  3032.14      0.0807823
  0.646    -6.12808    -851.319    -391.637     280.259   397558   414680   428288          397558          414680          428288 0.968839  3032.64      0.0824417
  0.648    -8.36882    -852.502    -391.077     279.974   397125   414680   427975          397125          414680          427975 0.969836  3033.14      0.0840866
   0.65    -10.5943    -853.687    -390.517     279.678   396855   411047   427714          396855          411047          427714 0.970275  3033.66      0.0857151
  0.652    -12.8045    -854.873    -389.958     279.369   396596   409404   427436          396596          409404          427436 0.970597  3034.18      0.0873256
  0.654    -14.9998    -856.059      -389.4     279.045   396362   409404   426917          396362          409404          426917 0.969457  3034.72      0.0889161
  0.656    -17.1802    -857.247    -388.842     278.704   396250   409404   426579          396250          409404          426579 0.968681  3035.26      0.0904851
  0.658    -19.3459    -858.435    -388.285     278.345   396006   409404   426331          396006          409404          426331 0.969177  3035.82      0.0920305
   0.66     -21.497    -859.625    -387.729     277.965   395881   409404   426021          395881          409404          426021 0.968606  3036.38      0.0935508
  0.662    -23.6336    -860.815    -387.173     277.563   395715   409404   425585          395715          409404          425585 0.967534  3036.95      0.0950441
  0.664    -25.7559    -862.007    -386.618     277.138   395525   409404   425345          395525          409404          425345 0.96778  3037.53      0.0965088
  0.666    -27.8641    -863.199    -386.065     276.688   395318   409404   425020          395318          409404          425020 0.967628  3038.12      0.0979433
  0.668    -29.9582    -864.392    -385.512     276.213   395195   409404   424802          395195          409404          424802 0.967549  3038.72      0.0993462
   0.67    -32.0385    -865.587     -384.96     275.712   394979   409404   424168          394979          409404          424168 0.9656  3039.33       0.100716
  0.672    -34.1049    -866.782    -384.409     275.183   394775   409404   423947          394775          409404          423947 0.966116  3039.95       0.102052
  0.674    -36.1578    -867.978    -383.859     274.627   394471   409404   423701          394471          409404          423701 0.96706  3040.57       0.103352
  0.676    -38.1971    -869.175     -383.31     274.043   394340   409404   423470          394340          409404          423470 0.96705   3041.2       0.104616
  0.678    -40.2231    -870.373    -382.763     273.432   394196   409404   423260          394196          409404          423260 0.967188  3041.84       0.105843
   0.68    -42.2358    -871.572    -382.217     272.794   394013   409404   423023          394013          409404          423023 0.967352  3042.49       0.107032
  0.682    -44.2354    -872.771    -381.672     272.128   393833   409404   422838          393833          409404          422838 0.967773  3043.15       0.108183
  0.684     -46.222    -873.972    -381.128     271.436   393620   406268   422677          393620          406268          422677 0.968452  3043.81       0.109296
  0.686    -48.1957    -875.174    -380.586     270.718   393435   406268   422353          393435          406268          422353 0.968017  3044.48        0.11037
  0.688    -50.1566    -876.376    -380.045     269.975   393037   406268   422060          393037          406268          422060 0.969005  3045.15       0.111406
   0.69     -52.105    -877.579    -379.506     269.209   392867   406268   421597          392867          406268          421597 0.967814  3045.83       0.112404
  0.692    -54.0408    -878.783    -378.968     268.421   392751   406268   421348          392751          406268          421348 0.967563  3046.52       0.113365
  0.694    -55.9642    -879.988    -378.432     267.612   392481   406268   421252          392481          406268          421252 0.969109  3047.22       0.114289
  0.696    -57.8754    -881.194    -377.898     266.785   392366   406229   421055          392366          406229          421055 0.969066  3047.92       0.115177
  0.698    -59.7743    -882.401    -377.365     265.939   392242   406229   420856          392242          406229          420856 0.969003  3048.62        0.11603
    0.7    -61.6613    -883.608    -376.834     265.078   392045   406229   420650          392045          406229          420650 0.969307  3049.33        0.11685
  0.702    -63.5363    -884.817    -376.305     264.204   391860   404935   420447          391860          404935          420447 0.96952  3050.05       0.117638
  0.704    -65.3995    -886.026    -375.777     263.318   391629   404935   420235          391629          404935          420235 0.969962  3050.77       0.118395
  0.706     -67.251    -887.236    -375.252     262.423   391465   404935   419958          391465          404935          419958 0.969628  3051.49       0.119123
  0.708    -69.0908    -888.447    -374.728     261.521   391334   404935   419771          391334          404935          419771 0.969596  3052.22       0.119823
   0.71    -70.9192    -889.658    -374.206     260.613   391222   404935   419575          391222          404935          419575 0.969348  3052.95       0.120499
  0.712    -72.7362    -890.871    -373.685     259.703   390876   399910   419364          390876          399910          419364 0.970392  3053.69       0.121151
  0.714     -74.542    -892.084    -373.167     258.792   390801   399910   418890          390801          399910          418890 0.968312  3054.43       0.121782
  0.716    -76.3365    -893.298     -372.65     257.883   390678   399910   418643          390678          399910          418643 0.967855  3055.18       0.122394
  0.718      -78.12    -894.512    -372.135     256.978   390547   399910   418309          390547          399910          418309 0.966878  3055.93       0.122989
   0.72    -79.8925    -895.728    -371.622     256.079   390452   399910   417947          390452          399910          417947 0.965498  3056.68        0.12357
  0.722    -81.6541    -896.944    -371.111     255.188   390377   399910   417619          390377          399910          417619 0.964185  3057.44       0.124138
  0.724     -83.405    -898.161    -370.601     254.308   390233   399910   417458          390233          399910          417458 0.96434   3058.2       0.124697
  0.726    -85.1452    -899.379    -370.094     253.441   390178   399910   417158          390178          399910          417158 0.962927  3058.96       0.125248
  0.728    -86.8749    -900.597    -369.588     252.589   390091   399910   416978          390091          399910          416978 0.962464  3059.73       0.125794
   0.73     -88.594    -901.816    -369.083     251.753   389937   399910   416745          389937          399910          416745 0.962043   3060.5       0.126337
  0.732    -90.3028    -903.036    -368.581     250.935   389815   399910   416537          389815          399910          416537 0.961519  3061.28        0.12688
  0.734    -92.0013    -904.257     -368.08     250.138   389660   399910   416296          389660          399910          416296 0.96095  3062.06       0.127425
  0.736    -93.6896    -905.478     -367.58     249.364   389379   399910   415911          389379          399910          415911 0.960296  3062.84       0.127975
  0.738    -95.3678      -906.7    -367.082     248.613   389252   399910   415698          389252          399910          415698 0.959803  3063.63       0.128531
   0.74     -97.036    -907.923    -366.586     247.887   388950   399910   415503          388950          399910          415503 0.960683  3064.42       0.129096
  0.742    -98.6942    -909.146    -366.091     247.189   388713   399910   415345          388713          399910          415345 0.961344  3065.21       0.129672
  0.744    -100.343    -910.371    -365.597     246.518   388546   399910   415043          388546          399910          415043 0.960482  3066.01       0.130261
  0.746    -101.981    -911.595    -365.104     245.878   388394   399910   414758          388394          399910          414758 0.959656  3066.81       0.130865
  0.748     -103.61    -912.821    -364.613     245.268   388187   399910   414517          388187          399910          414517 0.959529  3067.61       0.131486
   0.75     -105.23    -914.047    -364.123      244.69   388023   399910   414214          388023          399910          414214 0.958682  3068.42       0.132127
  0.752     -106.84    -915.274    -363.635     244.145   387932   399910   414005          387932          399910          414005 0.957938  3069.23       0.132788
  0.754     -108.44    -916.501    -363.147     243.633   387450   399910   413593          387450          399910          413593 0.958615  3070.05       0.133472
  0.756    -110.031    -917.729     -362.66     243.156   387328   399910   413279          387328          399910          413279 0.957515  3070.87        0.13418
  0.758    -111.613    -918.958    -362.174     242.715   387170   399910   413082          387170          399910          413082 0.957509   3071.7       0.134914
   0.76    -113.186    -920.187    -361.689     242.309   386916   399910   412904          386916          399910          412904 0.958265  3072.53       0.135675
  0.762     -114.75    -921.418    -361.205      241.94   386676   398912   412696          386676          398912          412696 0.95875  3073.37       0.136465
  0.764    -116.304    -922.648    -360.721     241.608   386566   398912   412516          386566          398912          412516 0.958473  3074.21       0.137285
  0.766     -117.85     -923.88    -360.238     241.313   386478   398912   412296          386478          398912          412296 0.957667  3075.05       0.138136
  0.768    -119.387    -925.111    -359.756     241.056   386276   396433   412009          386276          396433          412009 0.957204  3075.91       0.139019
   0.77    -120.915    -926.344    -359.274     240.836   386133   396433   411866          386133          396433          411866 0.957323  3076.76       0.139936
  0.772    -122.434    -927.577    -358.793     240.653   385976   396433   411591          385976          396433          411591 0.956536  3077.63       0.140886
  0.774    -123.945    -928.811    -358.311     240.509   385903   396433   411414          385903          396433          411414 0.955803   3078.5       0.141872
  0.776    -125.447    -930.046    -357.831     240.402   385795   396433   411265          385795          396433          411265 0.955461  3079.38       0.142893
  0.778     -126.94    -931.281     -357.35     240.333   385685   396433   411093          385685          396433          411093 0.954893  3080.26        0.14395
   0.78    -128.425    -932.516    -356.869     240.301   385376   396433   410774          385376          396433          410774 0.954731  3081.15       0.145044
  0.782    -129.902    -933.753    -356.389     240.305   385198   396433   410634          385198          396433          410634 0.954929  3082.05       0.146175
  0.784     -131.37     -934.99    -355.908     240.347   385054   396433   410491          385054          396433          410491 0.954813  3082.95       0.147343
  0.786     -132.83    -936.227    -355.427     240.424   384834   396433   410249          384834          396433          410249 0.954475  3083.86       0.148548
  0.788    -134.282    -937.465    -354.946     240.537   384496   396433   410031          384496          396433          410031 0.955277  3084.78       0.149791
   0.79    -135.726    -938.704    -354.465     240.685   384276   396422   409816          384276          396422          409816 0.955259  3085.71       0.151071
  0.792    -137.162    -939.944    -353.983     240.867   383955   396422   409680          383955          396422          409680 0.956599  3086.65       0.152388
  0.794    -138.589    -941.184    -353.502     241.082   383875   396422   409559          383875          396422          409559 0.956184  3087.59       0.153742
  0.796    -140.009    -942.424    -353.019     241.331   383604   396422   409445          383604          396422          409445 0.957249  3088.55       0.155133
  0.798    -141.421    -943.665    -352.536     241.611   383496   396422   409218          383496          396422          409218 0.956151  3089.51        0.15656
    0.8    -142.825    -944.907    -352.053     241.922   383230   396422   409021          383230          396422          409021 0.956526  3090.48       0.158022
  0.802    -144.221     -946.15    -351.568     242.263   382960   396422   408751          382960          396422          408751 0.956395  3091.46       0.159519
  0.804     -145.61    -947.393    -351.084     242.633   382729   396422   408552          382729          396422          408552 0.956543  3092.45       0.161051
  0.806    -146.991    -948.636    -350.598      243.03   382514   396422   408309          382514          396422          408309 0.956252  3093.46       0.162615
  0.808    -148.364    -949.881    -350.111     243.455   382342   396422   408163          382342          396422          408163 0.956368  3094.47       0.164211
   0.81     -149.73    -951.126    -349.624     243.905   382211   396422   408066          382211          396422          408066 0.956467  3095.49       0.165838
  0.812    -151.088    -952.371    -349.136     244.379   382027   396422   407911          382027          396422          407911 0.956516  3096.52       0.167495
  0.814    -152.439    -953.617    -348.647     244.877   381522   396422   407632          381522          396422          407632 0.958079  3097.56        0.16918
  0.816    -153.783    -954.864    -348.156     245.396   381221   396422   407516          381221          396422          407516 0.959392  3098.62       0.170893
  0.818    -155.119    -956.111    -347.665     245.935   381089   396422   407308          381089          396422          407308 0.958836  3099.68       0.172631
   0.82    -156.448    -957.359    -347.173     246.493   380953   396422   407246          380953          396422          407246 0.959285  3100.76       0.174393
  0.822    -157.769    -958.608    -346.679     247.069   380673   396422   407120          380673          396422          407120 0.960273  3101.84       0.176177
  0.824    -159.084    -959.857    -346.184     247.661   380427   396422   407056          380427          396422          407056 0.961446  3102.94       0.177982
  0.826    -160.391    -961.107    -345.688     248.267   380276   396422   406937          380276          396422          406937 0.961524  3104.05       0.179805
  0.828    -161.692    -962.357    -345.191     248.886   380065   394415   406718          380065          394415          406718 0.961288  3105.18       0.181646
   0.83    -162.985    -963.608    -344.693     249.517   379892   394415   406630          379892          394415          406630 0.961702  3106.31       0.183502
  0.832    -164.272     -964.86    -344.193     250.158   379726   394415   406485          379726          394415          406485 0.961619  3107.46        0.18537
  0.834    -165.551    -966.112    -343.692     250.807   379284   392993   406422          379284          392993          406422 0.963999  3108.61       0.187249
  0.836    -166.824    -967.365     -343.19     251.463   379211   392993   406285          379211          392993          406285 0.963367  3109.78       0.189137
  0.838    -168.089    -968.619    -342.686     252.124   379032   392993   406066          379032          392993          406066 0.962841  3110.97       0.191032
   0.84    -169.348    -969.873    -342.181     252.789   378835   392992   405880          378835          392992          405880 0.962688  3112.16       0.192931
  0.842    -170.601    -971.128    -341.675     253.455   378465   392992   405635          378465          392992          405635 0.96332  3113.37       0.194832
  0.844    -171.846    -972.383    -341.168     254.123   378200   392992   405474          378200          392992          405474 0.963883  3114.59       0.196732
  0.846    -173.085    -973.639    -340.659     254.789   377804   392992   405374          377804          392992          405374 0.965749  3115.82       0.198631
  0.848    -174.318    -974.896    -340.148     255.452   377700   392883   405213          377700          392883          405213 0.965302  3117.06       0.200524
   0.85    -175.543    -976.153    -339.637     256.111   377558   392883   405085          377558          392883          405085 0.965291  3118.32        0.20241
  0.852    -176.763    -977.411    -339.124     256.765   377253   392534   404989          377253          392534          404989 0.96654  3119.59       0.204287
  0.854    -177.975     -978.67     -338.61     257.411   376986   392534   404740          376986          392534          404740 0.966614  3120.87       0.206153
  0.856    -179.182    -979.929    -338.094     258.049   376852   392534   404493          376852          392534          404493 0.965871  3122.16       0.208004
  0.858    -180.382    -981.189    -337.578     258.676   376569   392534   404313          376569          392534          404313 0.966555  3123.47        0.20984
   0.86    -181.575     -982.45     -337.06     259.292   376470   392534   404116          376470          392534          404116 0.96595  3124.78       0.211657
  0.862    -182.763    -983.711     -336.54     259.896   376370   392534   403998          376370          392534          403998 0.965828  3126.11       0.213454
  0.864    -183.944    -984.973     -336.02     260.486   376128   392421   403896          376128          392421          403896 0.966663  3127.45       0.215228
  0.866    -185.119    -986.235    -335.499      261.06   375964   392421   403758          375964          392421          403758 0.966787   3128.8       0.216978
  0.868    -186.288    -987.499    -334.976     261.618   375728   392421   403667          375728          392421          403667 0.967617  3130.17       0.218702
   0.87     -187.45    -988.762    -334.452     262.159   375508   392421   403615          375508          392421          403615 0.96856  3131.54       0.220397
  0.872    -188.607    -990.027    -333.927     262.682   375341   390887   403485          375341          390887          403485 0.968683  3132.93       0.222062
  0.874    -189.757    -991.292    -333.401     263.185   375243   390887   403321          375243          390887          403321 0.968169  3134.33       0.223696
  0.876    -190.902    -992.558    -332.874     263.668   375064   390887   403182          375064          390887          403182 0.968278  3135.73       0.225296
  0.878    -192.041    -993.824    -332.347      264.13   374907   390887   403073          374907          390887          403073 0.968418  3137.15       0.226861
   0.88    -193.173    -995.091    -331.818      264.57   374714   390887   402997          374714          390887          402997 0.968928  3138.58       0.228391
  0.882      -194.3    -996.359    -331.288     264.988   374378   387450   402887          374378          387450          402887 0.970068  3140.02       0.229883
  0.884    -195.421    -997.628    -330.758     265.383   373911   387450   402587          373911          387450          402587 0.970939  3141.47       0.231337
  0.886    -196.536    -998.897    -330.227     265.754   373786   387450   402424          373786          387450          402424 0.970706  3142.92       0.232751
  0.888    -197.645    -1000.17    -329.695     266.102   373488   386742   402266          373488          386742          402266 0.971537  3144.39       0.234125
   0.89    -198.749    -1001.44    -329.163     266.426   373376   386742   402087          373376          386742          402087 0.971172  3145.87       0.235458
  0.892    -199.847    -1002.71    -328.629     266.725   373257   386742   401981          373257          386742          401981 0.971255  3147.36       0.236749
  0.894    -200.939    -1003.98    -328.096         267   373087   386742   401817          373087          386742          401817 0.971266  3148.85       0.237999
  0.896    -202.026    -1005.25    -327.561     267.251   372893   386742   401739          372893          386742          401739 0.971938  3150.35       0.239206
  0.898    -203.107    -1006.53    -327.027     267.477   372758   386742   401589          372758          386742          401589 0.971836  3151.86        0.24037
    0.9    -204.183     -1007.8    -326.491     267.678   372611   386742   401472          372611          386742          401472 0.971974  3153.38       0.241492
  0.902    -205.253    -1009.07    -325.956     267.855   372561   386742   401364          372561          386742          401364 0.971572  3154.91       0.242571
  0.904    -206.317    -1010.35     -325.42     268.009   372483   386742   401089          372483          386742          401089 0.970313  3156.44       0.243608
  0.906    -207.376    -1011.62    -324.884     268.138   372263   386742   400946          372263          386742          400946 0.970693  3157.99       0.244603
  0.908     -208.43     -1012.9    -324.348     268.245   372112   386742   400793          372112          386742          400793 0.970606  3159.53       0.245556
   0.91    -209.479    -1014.18    -323.811     268.328   372005   386742   400705          372005          386742          400705 0.970635  3161.09       0.246468
  0.912    -210.522    -1015.45    -323.274      268.39   371870   386742   400599          371870          386742          400599 0.970688  3162.65       0.247341
  0.914     -211.56    -1016.73    -322.737     268.429   371644   386742   400433          371644          386742          400433 0.970933  3164.22       0.248173
  0.916    -212.592    -1018.01    -322.201     268.448   371443   386742   400355          371443          386742          400355 0.971556  3165.79       0.248968
  0.918     -213.62    -1019.29    -321.664     268.447   371287   386742   400277          371287          386742          400277 0.971892  3167.37       0.249724
   0.92    -214.642    -1020.57    -321.127     268.426   371152   383965   400163          371152          383965          400163 0.971872  3168.96       0.250445
  0.922    -215.659    -1021.85     -320.59     268.386   371068   383965   400055          371068          383965          400055 0.971552  3170.55        0.25113
  0.924    -216.671    -1023.13    -320.053     268.328   370939   383964   399926          370939          383964          399926 0.971354  3172.14       0.251782
  0.926    -217.678    -1024.42    -319.517     268.254   370809   383964   399618          370809          383964          399618 0.970109  3173.74       0.252401
  0.928     -218.68     -1025.7     -318.98     268.163   370512   383964   399407          370512          383964          399407 0.970465  3175.34       0.252989
   0.93    -219.677    -1026.98    -318.444     268.058   370405   383964   399277          370405          383964          399277 0.970201  3176.95       0.253548
  0.932    -220.669    -1028.27    -317.908     267.938   370159   383964   399156          370159          383964          399156 0.970803  3178.57        0.25408
  0.934    -221.656    -1029.55    -317.372     267.806   370037   383964   398986          370037          383964          398986 0.970395  3180.18       0.254585
  0.936    -222.638    -1030.84    -316.837     267.661   369922   383964   398917          369922          383964          398917 0.970517   3181.8       0.255065
  0.938    -223.615    -1032.12    -316.302     267.506   369869   383964   398704          369869          383964          398704 0.969385  3183.43       0.255523
   0.94    -224.588    -1033.41    -315.767     267.341   369667   381575   398546          369667          381575          398546 0.969455  3185.06        0.25596
  0.942    -225.555     -1034.7    -315.232     267.167   369447   381575   398335          369447          381575          398335 0.969346  3186.69       0.256378
  0.944    -226.518    -1035.98    -314.698     266.985   369364   381575   398150          369364          381575          398150 0.968576  3188.33       0.256778
  0.946    -227.477    -1037.27    -314.164     266.797   369271   381183   397935          369271          381183          397935 0.967672  3189.97       0.257163
  0.948     -228.43    -1038.56    -313.631     266.603   369158   381183   397808          369158          381183          397808 0.967403  3191.61       0.257535
   0.95    -229.379    -1039.85    -313.098     266.405   368868   381183   397649          368868          381183          397649 0.968024  3193.25       0.257894
  0.952    -230.323    -1041.14    -312.565     266.203   368770   381183   397456          368770          381183          397456 0.967287   3194.9       0.258243
  0.954    -231.263    -1042.43    -312.033     265.999   368659   381183   397308          368659          381183          397308 0.966876  3196.55       0.258584
  0.956    -232.198    -1043.72    -311.501     265.794   368508   381183   397159          368508          381183          397159 0.966683  3198.21       0.258919
  0.958    -233.128    -1045.02     -310.97     265.589   368352   381183   397026          368352          381183          397026 0.966598  3199.87       0.259248
   0.96    -234.054    -1046.31    -310.439     265.384   368205   381183   396866          368205          381183          396866 0.966281  3201.53       0.259575
  0.962    -234.975     -1047.6    -309.908     265.181   368043   381183   396750          368043          381183          396750 0.966327  3203.19       0.259901
  0.964    -235.892     -1048.9    -309.378      264.98   367897   381183   396626          367897          381183          396626 0.966204  3204.86       0.260227
  0.966    -236.805    -1050.19    -308.848     264.784   367637   381183   396478          367637          381183          396478 0.966645  3206.53       0.260555
  0.968    -237.713    -1051.49    -308.319     264.591   367462   381183   396225          367462          381183          396225 0.965904   3208.2       0.260886
   0.97    -238.617    -1052.78     -307.79     264.404   367358   381183   396050          367358          381183          396050 0.965226  3209.87       0.261223
  0.972    -239.517    -1054.08    -307.261     264.223   366900   381183   395897          366900          381183          395897 0.966909  3211.55       0.261566
  0.974    -240.412    -1055.38    -306.733     264.049   366776   381183   395661          366776          381183          395661 0.96607  3213.23       0.261917
  0.976    -241.303    -1056.67    -306.205     263.883   366699   377883   395474          366699          377883          395474 0.965227  3214.92       0.262278
  0.978    -242.189    -1057.97    -305.678     263.725   366601   377883   395218          366601          377883          395218 0.964073  3216.61       0.262649
   0.98    -243.072    -1059.27     -305.15     263.577   366459   377883   394987          366459          377883          394987 0.963366   3218.3       0.263032
  0.982     -243.95    -1060.57    -304.623     263.438   366348   377883   394802          366348          377883          394802 0.962733  3219.99       0.263429
  0.984    -244.824    -1061.87    -304.097     263.309   366046   377883   394629          366046          377883          394629 0.963422  3221.69       0.263839
  0.986    -245.694    -1063.17     -303.57     263.192   365995   377883   394476          365995          377883          394476 0.962613  3223.39       0.264265
  0.988     -246.56    -1064.47    -303.044     263.086   365784   377883   394101          365784          377883          394101 0.96141   3225.1       0.264707
   0.99    -247.422    -1065.77    -302.518     262.992   365275   377883   393943          365275          377883          393943 0.963554  3226.81       0.265166
  0.992     -248.28    -1067.07    -301.992      262.91   365177   377883   393670          365177          377883          393670 0.96243  3228.52       0.265643
  0.994    -249.133    -1068.38    -301.466     262.842   364972   377883   393504          364972          377883          393504 0.962703  3230.24       0.266139
  0.996    -249.983    -1069.68     -300.94     262.787   364868   377883   393305          364868          377883          393305 0.962088  3231.96       0.266654
  0.998    -250.829    -1070.98    -300.415     262.745   364627   377883   393199          364627          377883          393199 0.962963  3233.69        0.26719
      1     -251.67    -1072.29    -299.889     262.717   364551   377883   393112          364551          377883          393112 0.96287  3235.42       0.267745
  1.002    -252.508    -1073.59    -299.364     262.703   364500   377883   393027          364500          377883          393027 0.962559  3237.15       0.268322
  1.004    -253.342     -1074.9    -298.839     262.704   364183   377085   392819          364183          377085          392819 0.963204  3238.89        0.26892
  1.006    -254.172    -1076.21    -298.313     262.719   363982   377085   392639          363982          377085          392639 0.9633  3240.63        0.26954
  1.008    -254.998    -1077.51    -297.788     262.748   363767   377085   392468          363767          377085          392468 0.963562  3242.38       0.270182
   1.01    -255.821    -1078.82    -297.262     262.793   363664   377085   392176          363664          377085          392176 0.962309  3244.14       0.270846
  1.012    -256.639    -1080.13    -296.737     262.852   363585   377085   391954          363585          377085          391954 0.961352   3245.9       0.271533
  1.014    -257.454    -1081.44    -296.211     262.926   363480   377085   391798          363480          377085          391798 0.961002  3247.66       0.272241
  1.016    -258.265    -1082.75    -295.685     263.015   363366   377085   391688          363366          377085          391688 0.960981  3249.44       0.272973
  1.018    -259.072    -1084.05    -295.159     263.118   363219   377085   391513          363219          377085          391513 0.960726  3251.21       0.273726
   1.02    -259.876    -1085.36    -294.632     263.236   363118   377085   391168          363118          377085          391168 0.959036     3253       0.274501
  1.022    -260.675    -1086.68    -294.106     263.369   362981   376596   391072          362981          376596          391072 0.959229  3254.78       0.275299
  1.024    -261.472    -1087.99    -293.579     263.516   362675   376596   390949          362675          376596          390949 0.96038  3256.58       0.276118
  1.026    -262.264     -1089.3    -293.052     263.677   362440   376596   390761          362440          376596          390761 0.960617  3258.38       0.276958
  1.028    -263.053    -1090.61    -292.524     263.852   362067   376596   390599          362067          376596          390599 0.962039  3260.19        0.27782
   1.03    -263.838    -1091.92    -291.996     264.041   361895   376596   390304          361895          376596          390304 0.961259     3262       0.278701
  1.032     -264.62    -1093.24    -291.468     264.243   361761   376596   390042          361761          376596          390042 0.960489  3263.83       0.279603
  1.034    -265.398    -1094.55    -290.939     264.459   361627   376596   389840          361627          376596          389840 0.960127  3265.65       0.280525
  1.036    -266.173    -1095.87     -290.41     264.687   361426   376596   389688          361426          376596          389688 0.960538  3267.49       0.281465
  1.038    -266.944    -1097.18    -289.881     264.927   361201   376596   389528          361201          376596          389528 0.961064  3269.33       0.282424
   1.04    -267.711     -1098.5     -289.35      265.18   361097   376596   389453          361097          376596          389453 0.961323  3271.18         0.2834
  1.042    -268.475    -1099.81     -288.82     265.445   360966   373528   389348          360966          373528          389348 0.961522  3273.04       0.284393
  1.044    -269.236    -1101.13    -288.289      265.72   360839   373528   389168          360839          373528          389168 0.96118  3274.91       0.285403
  1.046    -269.993    -1102.45    -287.757     266.007   360744   373528   389044          360744          373528          389044 0.960965  3276.78       0.286427
  1.048    -270.747    -1103.77    -287.225     266.303   360639   373528   388903          360639          373528          388903 0.960664  3278.66       0.287467
   1.05    -271.497    -1105.08    -286.692      266.61   360602   373528   388737          360602          373528          388737 0.959708  3280.55        0.28852
  1.052    -272.244     -1106.4    -286.158     266.926   360514   373528   388620          360514          373528          388620 0.959363  3282.45       0.289586
  1.054    -272.988    -1107.72    -285.624     267.251   360284   373528   388483          360284          373528          388483 0.959804  3284.35       0.290664
  1.056    -273.728    -1109.04    -285.089     267.584   360145   373528   388243          360145          373528          388243 0.958973  3286.27       0.291754
  1.058    -274.465    -1110.36    -284.554     267.925   360034   373528   388114          360034          373528          388114 0.958671  3288.19       0.292853
   1.06    -275.199    -1111.69    -284.017     268.273   359786   373528   387890          359786          373528          387890 0.958658  3290.12       0.293962
  1.062    -275.929    -1113.01    -283.481     268.628   359491   373488   387771          359491          373488          387771 0.959683  3292.06       0.295079
  1.064    -276.656    -1114.33    -282.943     268.989   359345   373488   387627          359345          373488          387627 0.959564     3294       0.296203
  1.066     -277.38    -1115.65    -282.405     269.356   359108   373488   387543          359108          373488          387543 0.960436  3295.96       0.297334
  1.068      -278.1    -1116.98    -281.866     269.728   358711   373488   387475          358711          373488          387475 0.962506  3297.92       0.298471
   1.07    -278.818     -1118.3    -281.326     270.104   358498   373488   387255          358498          373488          387255 0.962381   3299.9       0.299612
  1.072    -279.532    -1119.63    -280.785     270.484   358255   373488   387065          358255          373488          387065 0.962673  3301.88       0.300756
  1.074    -280.243    -1120.95    -280.244     270.868   358169   373488   386958          358169          373488          386958 0.962485  3303.87       0.301903
  1.076    -280.951    -1122.28    -279.702     271.254   358014   373488   386845          358014          373488          386845 0.962681  3305.87       0.303052
  1.078    -281.655     -1123.6    -279.159     271.643   357741   373488   386783          357741          373488          386783 0.963969  3307.88       0.304202
   1.08    -282.357    -1124.93    -278.615     272.034   357579   373488   386618          357579          373488          386618 0.96387  3309.89       0.305351
  1.082    -283.055    -1126.26    -278.071     272.426   357472   373488   386310          357472          373488          386310 0.962511  3311.92         0.3065
  1.084     -283.75    -1127.59    -277.525     272.818   357144   373488   386214          357144          373488          386214 0.963953  3313.95       0.307647
  1.086    -284.443    -1128.91    -276.979     273.211   357008   373488   386089          357008          373488          386089 0.964003     3316       0.308791
  1.088    -285.132    -1130.24    -276.433     273.603   356731   373488   386022          356731          373488          386022 0.965325  3318.05       0.309932
   1.09    -285.818    -1131.57    -275.885     273.995   356529   372783   385654          356529          372783          385654 0.964324  3320.11       0.311068
  1.092    -286.501     -1132.9    -275.337     274.385   356383   372783   385570          356383          372783          385570 0.964772  3322.18         0.3122
  1.094    -287.181    -1134.23    -274.787     274.774   356324   372783   385499          356324          372783          385499 0.964712  3324.26       0.313326
  1.096    -287.858    -1135.57    -274.237     275.161   356142   372783   385386          356142          372783          385386 0.965121  3326.35       0.314445
  1.098    -288.532     -1136.9    -273.687     275.545   356027   372783   385245          356027          372783          385245 0.964935  3328.44       0.315558
    1.1    -289.203    -1138.23    -273.135     275.926   355935   372783   385141          355935          372783          385141 0.964814  3330.55       0.316663
  1.102    -289.872    -1139.56    -272.583     276.304   355649   372783   384934          355649          372783          384934 0.965254  3332.66        0.31776
  1.104    -290.537     -1140.9     -272.03     276.678   355516   372783   384862          355516          372783          384862 0.965586  3334.78       0.318848
  1.106    -291.199    -1142.23    -271.476     277.048   355402   372783   384766          355402          372783          384766 0.965632  3336.92       0.319928
  1.108    -291.859    -1143.57    -270.922     277.415   355249   372783   384674          355249          372783          384674 0.965888  3339.05       0.320998
