# n_walkers  560  n_cull  1  simple log(alpha)  -0.001784121793501292
#   T     log_Z(T)      F(T)        U(T)       Cvp(T)    low_pct_i(T) mode_i(T) high_pct_i(T) low_pct_iter(T)  mode_iter(T)   high_pct_iter(T) Z_fract(T)   V(T)   thermal_exp(T)
   0.01       76009     -774.06    -772.809     121.197   779330   779455   779455          779330          779455          779455 0.904464  1602.22     -0.0030534
  0.012     63108.9     -774.07    -772.566     121.255   779306   779455   779455          779306          779455          779455 0.899414  1602.21    -0.00225999
  0.014     53894.5    -774.081    -772.324     121.312   779283   779455   779455          779283          779455          779455 0.88908  1602.21    -0.00120486
  0.016     46983.8    -774.092    -772.081     121.368   779245   779455   779455          779245          779455          779455 0.895014  1602.21   -0.000283698
  0.018     41608.8    -774.104    -771.838     121.425   779213   779455   779455          779213          779455          779455 0.894465  1602.21    0.000425152
   0.02     37308.8    -774.116    -771.595     121.486   779176   779455   779455          779176          779455          779455 0.897256  1602.21    0.000943563
  0.022     33790.7    -774.128    -771.352     121.551   779136   779455   779455          779136          779455          779455 0.901619  1602.21     0.00131623
  0.024     30858.9     -774.14    -771.109     121.622   779103   779454   779455          779103          779454          779455 0.90001  1602.22     0.00158511
  0.026     28378.1    -774.153    -770.866     121.699   779061   779454   779455          779061          779454          779455 0.903286  1602.22     0.00178294
  0.028     26251.8    -774.166    -770.622     121.783   779014   779454   779455          779014          779454          779455 0.907948  1602.23     0.00193333
   0.03       24409    -774.179    -770.379     121.873   778983   779454   779455          778983          779454          779455 0.903614  1602.24     0.00205258
  0.032     22796.6    -774.193    -770.135      121.97   778953   779454   779455          778953          779454          779455 0.897091  1602.24     0.00215174
  0.034     21373.8    -774.207    -769.891     122.075   778914   779454   779455          778914          779454          779455 0.893246  1602.25     0.00223823
  0.036     20109.2    -774.221    -769.647     122.188   778871   779454   779455          778871          779454          779455 0.889707  1602.26      0.0023171
  0.038     18977.6    -774.235    -769.402     122.312   778787   779454   779455          778787          779454          779455 0.900498  1602.26     0.00239189
   0.04     17959.3    -774.249    -769.157     122.447   778725   779454   779455          778725          779454          779455 0.903682  1602.27     0.00246523
  0.042     17037.9    -774.264    -768.912     122.594   778679   779454   779455          778679          779454          779455 0.90018  1602.28     0.00253926
  0.044     16200.3    -774.279    -768.667     122.755   778639   779454   779455          778639          779454          779455 0.89399  1602.29     0.00261586
  0.046     15435.5    -774.294    -768.421     122.933   778575   779454   779455          778575          779454          779455 0.893264   1602.3     0.00269689
  0.048     14734.5     -774.31    -768.175     123.127   778465   779454   779455          778465          779454          779455 0.903204  1602.31     0.00278424
   0.05     14089.5    -774.325    -767.929     123.342   778402   779454   779455          778402          779454          779455 0.900915  1602.31      0.0028799
  0.052     13494.2    -774.341    -767.682     123.577   778336   779454   779455          778336          779454          779455 0.89806  1602.32     0.00298601
  0.054       12943    -774.358    -767.434     123.837   778253   779454   779455          778253          779454          779455 0.897653  1602.33     0.00310485
  0.056     12431.1    -774.374    -767.186     124.122   778160   779454   779455          778160          779454          779455 0.89799  1602.34     0.00323885
  0.058     11954.6    -774.391    -766.938     124.436   778068   779454   779455          778068          779454          779455 0.896895  1602.35     0.00339057
   0.06     11509.8    -774.408    -766.689     124.783   777957   779454   779455          777957          779454          779455 0.897882  1602.37     0.00356274
  0.062     11093.8    -774.426    -766.439     125.164   777870   779454   779455          777870          779454          779455 0.893544  1602.38     0.00375826
  0.064     10703.7    -774.443    -766.188     125.586   777733   779454   779455          777733          779454          779455 0.895063  1602.39     0.00398031
  0.066     10337.3    -774.462    -765.936     126.053   777606   779454   779455          777606          779454          779455 0.893924   1602.4     0.00423237
  0.068     9992.44     -774.48    -765.684     126.571   777496   779454   779455          777496          779454          779455 0.888876  1602.42     0.00451845
   0.07      9667.3    -774.499     -765.43     127.148   777275   779454   779455          777275          779454          779455 0.894766  1602.43      0.0048432
  0.072     9360.23    -774.518    -765.175     127.794   777059   779454   779455          777059          779454          779455 0.898927  1602.45     0.00521223
  0.074     9069.76    -774.538    -764.919     128.521   776814   779454   779455          776814          779454          779455 0.903906  1602.47      0.0056324
  0.076     8794.58    -774.558    -764.661     129.345   776581   779454   779455          776581          779454          779455 0.906655  1602.48     0.00611227
  0.078     8533.53    -774.579    -764.401     130.283   776347   779454   779455          776347          779454          779455 0.907738   1602.5     0.00666258
   0.08     8285.53      -774.6     -764.14     131.361   776056   779454   779455          776056          779454          779455 0.911195  1602.53     0.00729689
  0.082     8049.64    -774.622    -763.876     132.608   775727   779454   779455          775727          779454          779455 0.915982  1602.55      0.0080324
  0.084     7824.98    -774.645    -763.609     134.063   775434   779454   779455          775434          779454          779455 0.915798  1602.58     0.00889093
  0.086     7610.79    -774.668    -763.339     135.774   775123   779454   779455          775123          779454          779455 0.914984  1602.61     0.00990022
  0.088     7406.34    -774.691    -763.066     137.802   774674   779454   779455          774674          779454          779455 0.918772  1602.64      0.0110957
   0.09     7210.98    -774.716    -762.788     140.226   774184   779454   779455          774184          779454          779455 0.921433  1602.68      0.0125226
  0.092     7024.13    -774.742    -762.505     143.148   773721   779454   779455          773721          779454          779455 0.920293  1602.72      0.0142395
  0.094     6845.24    -774.768    -762.215     146.703   773111   779454   779455          773111          779454          779455 0.920965  1602.77       0.016322
  0.096     6673.82    -774.796    -761.917     151.066   772414   779454   779455          772414          779454          779455 0.921785  1602.83      0.0188679
  0.098      6509.4    -774.825     -761.61     156.471   771583   779454   779455          771583          779454          779455 0.923098  1602.89      0.0220045
    0.1     6351.58    -774.855    -761.291     163.224   770490   779454   779455          770490          779454          779455 0.927115  1602.97      0.0258945
  0.102     6199.96    -774.888    -760.956     171.724   768840   779454   779455          768840          779454          779455 0.940886  1603.06      0.0307424
  0.104      6054.2    -774.922    -760.602     182.471   767551   779454   779455          767551          779454          779455 0.942845  1603.17      0.0367953
  0.106     5913.95    -774.958    -760.224     196.055   766213   779454   779455          766213          779454          779455 0.93808   1603.3       0.044331
  0.108     5778.93    -774.998    -759.816     213.106   762782   779371   779455          762782          779371          779455 0.956925  1603.45      0.0536235
   0.11     5648.85    -775.041    -759.369     234.157   760421   778997   779455          760421          778997          779455 0.959511  1603.64      0.0648703
  0.112     5523.46    -775.088    -758.876      259.39   756839   775789   779455          756839          775789          779455 0.970035  1603.87      0.0780701
  0.114      5402.5     -775.14    -758.329     288.284   754164   775789   779455          754164          775789          779455 0.970872  1604.15      0.0928643
  0.116     5285.77    -775.198    -757.722     319.251   750309   775789   779455          750309          775789          779455 0.978031  1604.47       0.108401
  0.118     5173.05    -775.263    -757.052     349.547   746619   768451   779455          746619          768451          779455 0.983577  1604.84       0.123345
   0.12     5064.16    -775.336    -756.326     375.777   743814   768451   779455          743814          768451          779455 0.985005  1605.26       0.136151
  0.122      4958.9    -775.417    -755.554     395.003   741128   763018   779455          741128          763018          779455 0.985887  1605.71       0.145593
  0.124     4857.12    -775.507    -754.752     405.967   739094   756660   779455          739094          756660          779455 0.983806  1606.19       0.151271
  0.126     4758.63    -775.607    -753.935     409.591   736551   756660   778115          736551          756660          778115 0.977813  1606.68       0.153768
  0.128      4663.3    -775.715    -753.117     408.389   734215   751725   775628          734215          751725          775628 0.971064  1607.18       0.154331
   0.13     4570.97    -775.833    -752.303     405.246   730792   746966   772192          730792          746966          772192 0.967568  1607.67       0.154303
  0.132      4481.5    -775.959    -751.495     402.304   728862   746966   769229          728862          746966          769229 0.963357  1608.17       0.154629
  0.134     4394.77    -776.094    -750.693     400.439   726176   746252   765585          726176          746252          765585 0.961262  1608.67       0.155622
  0.136     4310.65    -776.237    -749.893     399.336   724036   746252   763796          724036          746252          763796 0.96688  1609.17       0.156987
  0.138     4229.03    -776.389    -749.096     397.995   722175   742538   761643          722175          742538          761643 0.968091  1609.68       0.158062
   0.14      4149.8    -776.548    -748.302     395.405   720713   741156   759605          720713          741156          759605 0.967735  1610.19        0.15816
  0.142     4072.86    -776.716    -747.515     391.142   718987   735370   757180          718987          735370          757180 0.964911  1610.69       0.156901
  0.144      3998.1    -776.891    -746.738     385.691   716552   731069   754845          716552          731069          754845 0.965469   1611.2       0.154388
  0.146     3925.45    -777.073    -745.972     380.554   715095   730594   752470          715095          730594          752470 0.961392  1611.69       0.151174
  0.148      3854.8    -777.263    -745.214     378.643   712819   730594   750426          712819          730594          750426 0.961298  1612.17       0.148001
   0.15     3786.09    -777.459    -744.451     386.577   711406   727202   748295          711406          727202          748295 0.955496  1612.64       0.145239
  0.152     3719.23    -777.663    -743.649     424.191   709284   726363   746382          709284          726363          746382 0.950531  1613.11       0.141177
  0.154     3654.16    -777.875    -742.693       558.5   706547   726363   744200          706547          726363          744200 0.939204  1613.54       0.125305
  0.156     3590.84    -778.099    -741.217     998.292   704636   724080   742348          704636          724080          742348 0.894624  1613.86       0.053666
  0.158     3529.27    -778.347    -738.233     2115.51   652234   724080   740628          652234          724080          740628 0.945657   1613.7      -0.190421
   0.16     3469.56    -778.646    -732.642     3301.73   635876   724080   738562          635876          724080          738562 0.978149  1612.44      -0.586425
  0.162     3411.79     -779.02    -726.369     2665.14   630079   652355   732740          630079          652355          732740 0.981441  1610.33       -0.64035
  0.164     3355.81    -779.456    -722.343      1439.1   628508   646103   682507          628508          646103          682507 0.901265  1608.61      -0.421343
  0.166     3301.37    -779.925    -720.167     830.984   626860   642970   677416          626860          642970          677416 0.946682  1607.54      -0.261513
  0.168     3248.34    -780.413    -718.773     599.449   625364   642941   672906          625364          642941          672906 0.956912  1606.85      -0.173469
   0.17     3196.62    -780.912    -717.685      500.49   623835   639643   668430          623835          639643          668430 0.956696  1606.39      -0.116585
  0.172     3146.16     -781.42    -716.741     447.519   622743   639643   663767          622743          639643          663767 0.950581  1606.09     -0.0732116
  0.174     3096.91    -781.935    -715.882     414.147   621338   639504   658726          621338          639504          658726 0.945027  1605.91     -0.0377598
  0.176     3048.81    -782.458    -715.078     391.383   619612   639504   656373          619612          639504          656373 0.952301  1605.84     -0.0082574
  0.178     3001.83    -782.987    -714.312     375.255   618126   632199   655193          618126          632199          655193 0.960542  1605.85      0.0163652
   0.18     2955.92    -783.521    -713.574     363.542   617026   631231   653433          617026          631231          653433 0.961737  1605.94      0.0369311
  0.182     2911.05    -784.061    -712.856     354.864   616194   630826   651415          616194          630826          651415 0.958086  1606.09      0.0541453
  0.184     2867.19    -784.606    -712.153     348.342   614356   630826   649729          614356          630826          649729 0.96109  1606.28      0.0686203
  0.186     2824.29    -785.156    -711.461     343.423   613173   630825   648066          613173          630825          648066 0.96122  1606.52      0.0808865
  0.188     2782.34    -785.711    -710.778     339.759   612072   630825   646679          612072          630825          646679 0.961966   1606.8      0.0913988
   0.19     2741.29     -786.27    -710.101     337.129   611037   626951   645478          611037          626951          645478 0.962156  1607.11       0.100541
  0.192     2701.12    -786.834    -709.429     335.386   610068   623957   643930          610068          623957          643930 0.959321  1607.45       0.108627
  0.194      2661.8    -787.403    -708.759     334.425   608326   623957   642972          608326          623957          642972 0.963259  1607.81       0.115906
  0.196     2623.31    -787.976    -708.091     334.162   607019   623957   641375          607019          623957          641375 0.961896  1608.19       0.122567
  0.198     2585.62    -788.553    -707.422     334.528   606036   623957   640379          606036          623957          640379 0.961629   1608.6       0.128746
    0.2      2548.7    -789.135    -706.752     335.461   604296   623957   639169          604296          623957          639169 0.963716  1609.02       0.134536
  0.202     2512.53    -789.721     -706.08     336.907   602744   619649   637951          602744          619649          637951 0.965468  1609.46       0.140001
  0.204      2477.1    -790.311    -705.404     338.817   601712   619649   636766          601712          619649          636766 0.964479  1609.92       0.145178
  0.206     2442.37    -790.906    -704.725     341.144   600662   617719   635385          600662          617719          635385 0.962375   1610.4       0.150094
  0.208     2408.34    -791.504     -704.04     343.845   599123   613944   634237          599123          613944          634237 0.963486  1610.89       0.154768
   0.21     2374.97    -792.108    -703.349     346.874   597900   613944   633065          597900          613944          633065 0.962909  1611.39       0.159211
  0.212     2342.25    -792.715    -702.652     350.184   596698   613944   632224          596698          613944          632224 0.963593  1611.91       0.163434
  0.214     2310.16    -793.327    -701.948      353.72   595519   613944   631237          595519          613944          631237 0.962821  1612.45       0.167442
  0.216     2278.69    -793.943    -701.237     357.418   594160   613944   629826          594160          613944          629826 0.960721  1612.99       0.171235
  0.218     2247.81    -794.564    -700.518     361.205   592104   613708   628648          592104          613708          628648 0.963843  1613.55       0.174806
   0.22     2217.52    -795.189    -699.792     364.997   590691   607193   627873          590691          607193          627873 0.966379  1614.12       0.178143
  0.222     2187.79    -795.818    -699.058     368.702   589157   607193   626769          589157          607193          626769 0.9676   1614.7       0.181232
  0.224     2158.62    -796.452    -698.317     372.221   588254   607193   625562          588254          607193          625562 0.965337  1615.29        0.18406
  0.226     2129.98    -797.091     -697.57     375.458   586657   607193   624715          586657          607193          624715 0.967799  1615.89       0.186622
  0.228     2101.86    -797.734    -696.816     378.323   585439   607193   623604          585439          607193          623604 0.9673   1616.5       0.188928
   0.23     2074.25    -798.381    -696.057     380.743   583874   602904   622319          583874          602904          622319 0.968032  1617.11       0.191009
  0.232     2047.13    -799.033    -695.293     382.674   582624   602904   621035          582624          602904          621035 0.967607  1617.73        0.19292
  0.234      2020.5     -799.69    -694.526     384.103   581300   599211   620147          581300          599211          620147 0.969819  1618.36       0.194742
  0.236     1994.34    -800.351    -693.757     385.061   580533   599211   618815          580533          599211          618815 0.966868  1618.99       0.196583
  0.238     1968.64    -801.016    -692.986     385.616   579314   598289   617854          579314          598289          617854 0.967279  1619.63       0.198567
   0.24     1943.39    -801.686    -692.215      385.88   577740   597100   616512          577740          597100          616512 0.9673  1620.28       0.200833
  0.242     1918.57    -802.361    -691.443     385.997   576760   591315   615361          576760          591315          615361 0.965979  1620.93       0.203519
  0.244     1894.17     -803.04    -690.671     386.133   575280   591315   614422          575280          591315          614422 0.967528   1621.6        0.20676
  0.246     1870.19    -803.723    -689.898      386.47   574190   591315   612986          574190          591315          612986 0.964993  1622.28       0.210672
  0.248     1846.62    -804.411    -689.125     387.191   573386   591315   611113          573386          591315          611113 0.959067  1622.97        0.21535
   0.25     1823.44    -805.102    -688.349     388.467   572147   591315   609790          572147          591315          609790 0.95808  1623.68       0.220855
  0.252     1800.64    -805.799     -687.57     390.452   570714   591315   609114          570714          591315          609114 0.960476   1624.4       0.227217
  0.254     1778.22    -806.499    -686.787      393.27   568740   589277   608154          568740          589277          608154 0.963824  1625.15       0.234427
  0.256     1756.17    -807.204    -685.997     397.015   567436   589277   607231          567436          589277          607231 0.964073  1625.93       0.242442
  0.258     1734.47    -807.913    -685.198     401.749   565925   584115   605600          565925          584115          605600 0.962178  1626.73       0.251182
   0.26     1713.13    -808.626    -684.389     407.499   564472   584115   604571          564472          584115          604571 0.963143  1627.56       0.260537
  0.262     1692.13    -809.344    -683.567     414.267   563124   581909   603274          563124          581909          603274 0.962042  1628.43       0.270373
  0.264     1671.46    -810.067    -682.731      422.03   562054   581909   601983          562054          581909          601983 0.959126  1629.32       0.280543
  0.266     1651.12    -810.794    -681.879     430.756   560923   581909   600816          560923          581909          600816 0.956584  1630.26       0.290895
  0.268     1631.11    -811.525    -681.008     440.412   558691   581909   599718          558691          581909          599718 0.959318  1631.22       0.301292
   0.27      1611.4    -812.262    -680.116     450.978   556874   581909   598871          556874          581909          598871 0.960635  1632.22       0.311619
  0.272     1592.01    -813.003    -679.203     462.468   554462   581909   598033          554462          581909          598033 0.964589  1633.26       0.321808
  0.274     1572.91    -813.749    -678.266     474.946   552492   575305   597087          552492          575305          597087 0.966402  1634.32       0.331852
  0.276     1554.12    -814.501    -677.303     488.557   551230   575305   595563          551230          575305          595563 0.962757  1635.42       0.341828
  0.278     1535.61    -815.258    -676.311     503.558   549127   574972   594670          549127          574972          594670 0.964727  1636.56       0.351925
   0.28     1517.38     -816.02    -675.287     520.372   547026   569022   593375          547026          569022          593375 0.96472  1637.73       0.362479
  0.282     1499.44    -816.788    -674.228     539.663   545692   569022   592272          545692          569022          592272 0.961548  1638.94       0.374039
  0.284     1481.77    -817.563    -673.126     562.461   544038   569022   591401          544038          569022          591401 0.959166  1640.18       0.387457
  0.286     1464.36    -818.343    -671.974     590.364   541676   565328   590044          541676          565328          590044 0.956254  1641.48       0.404058
  0.288     1447.23     -819.13     -670.76     625.867   537723   565328   588754          537723          565328          588754 0.958837  1642.84       0.425907
   0.29     1430.35    -819.924    -669.463     672.901   535441   565328   587288          535441          565328          587288 0.953747  1644.29       0.456269
  0.292     1413.73    -820.725    -668.056     737.624   531034   563414   586161          531034          563414          586161 0.956644  1645.86       0.500316
  0.294     1397.36    -821.535    -666.495     829.449   527235   563414   584984          527235          563414          584984 0.953033  1647.61       0.566105
  0.296     1381.25    -822.355    -664.712     961.839   523754   552929   583821          523754          552929          583821 0.943913  1649.63       0.665541
  0.298      1365.4    -823.186    -662.609     1151.39   516198   552776   582184          516198          552776          582184 0.939493  1652.05       0.814137
    0.3      1349.8    -824.032    -660.058     1411.84   502490   552776   579791          502490          552776          579791 0.946595  1655.08        1.02672
  0.302     1334.46    -824.894    -656.917     1738.42   486567   552776   578148          486567          552776          578148 0.965939  1658.93        1.30477
  0.304      1319.4    -825.778     -653.09     2084.51   477131   550129   576656          477131          550129          576656 0.97663  1663.78        1.61537
  0.306     1304.62    -826.688    -648.631     2352.56   470887   547297   575328          470887          547297          575328 0.982822  1669.63        1.87941
  0.308     1290.12    -827.626    -643.805     2435.95   464898   532407   572710          464898          532407          572710 0.987318  1676.17        2.00181
   0.31     1275.91    -828.595    -639.036     2298.93   463553   487196   567590          463553          487196          567590 0.982898  1682.84        1.93966
  0.312     1261.97    -829.591    -634.713     2007.21   462020   487175   559660          462020          487175          559660 0.974256  1689.07        1.73602
  0.314     1248.29    -830.612    -631.037     1669.65   460590   487175   550701          460590          487175          550701 0.964491  1694.51        1.47793
  0.316     1234.84    -831.652     -628.01     1366.78   459578   480828   536350          459578          480828          536350 0.945547   1699.1        1.23578
  0.318     1221.61    -832.708    -625.525     1130.22   458109   480828   520806          458109          480828          520806 0.925489  1702.96        1.04151
   0.32     1208.58    -833.777    -623.446     958.973   456042   480828   514597          456042          480828          514597 0.931711  1706.25       0.898966
  0.322     1195.75    -834.857    -621.655     839.631   453851   480828   511124          453851          480828          511124 0.94233  1709.14       0.799803
  0.324      1183.1    -835.945    -620.062     757.711   451896   477194   508269          451896          477194          508269 0.950625  1711.76       0.733324
  0.326     1170.64    -837.042    -618.607     701.635   450353   477194   505304          450353          477194          505304 0.954104  1714.19       0.690343
  0.328     1158.35    -838.145    -617.244     663.173   449237   473384   502820          449237          473384          502820 0.955828  1716.51        0.66399
   0.33     1146.22    -839.255    -615.946     636.764   447683   472938   499458          447683          472938          499458 0.954278  1718.76       0.649402
  0.332     1134.27    -840.372    -614.692     618.705   446090   465500   497378          446090          465500          497378 0.956378  1720.98       0.643197
  0.334     1122.47    -841.494    -613.467     606.524   444374   465495   495112          444374          465495          495112 0.95754   1723.2       0.643009
  0.336     1110.83    -842.623    -612.263     598.537   443326   465495   493266          443326          465495          493266 0.957199  1725.42       0.647165
  0.338     1099.35    -843.757    -611.071     593.573   441973   465495   491660          441973          465495          491660 0.958107  1727.67       0.654461
   0.34     1088.02    -844.896    -609.887     590.802   440555   465495   490247          440555          465495          490247 0.959513  1729.95       0.664031
  0.342     1076.83    -846.042    -608.707     589.629   439148   465495   488627          439148          465495          488627 0.959463  1732.26       0.675261
  0.344     1065.79    -847.192    -607.528     589.634   437829   465495   487478          437829          465495          487478 0.960176  1734.63       0.687741
  0.346      1054.9    -848.348    -606.348     590.528   435943   465310   486023          435943          465310          486023 0.961152  1737.04        0.70123
  0.348     1044.15     -849.51    -605.165     592.131   434224   464465   484972          434224          464465          484972 0.962689   1739.5       0.715632
   0.35     1033.53    -850.677    -603.979     594.341   432279   453349   483233          432279          453349          483233 0.962456  1742.02       0.730967
  0.352     1023.05    -851.849    -602.787     597.119   430389   452880   482161          430389          452880          482161 0.964081  1744.59       0.747337
  0.354     1012.71    -853.027     -601.59     600.458   429097   450803   480440          429097          450803          480440 0.961045  1747.23       0.764881
  0.356     1002.49     -854.21    -600.385     604.361   426509   450803   478569          426509          450803          478569 0.962716  1749.94        0.78374
  0.358     992.409    -855.399    -599.172     608.814   424554   450803   477453          424554          450803          477453 0.965401  1752.72          0.804
   0.36     982.452    -856.593     -597.95     613.766   423309   450803   475635          423309          450803          475635 0.963075  1755.58       0.825657
  0.362      972.62    -857.793    -596.717     619.115   421554   450803   474536          421554          450803          474536 0.965176  1758.52       0.848587
  0.364     962.911    -858.998    -595.473     624.698   419678   445026   473384          419678          445026          473384 0.967924  1761.55        0.87253
  0.366     953.323    -860.209    -594.218     630.304   418617   445026   471580          418617          445026          471580 0.965108  1764.67       0.897104
  0.368     943.855    -861.425    -592.952     635.682   417560   445026   469670          417560          445026          469670 0.961831  1767.88       0.921829
   0.37     934.504    -862.647    -591.676     640.573   415302   445026   468797          415302          445026          468797 0.966465  1771.19       0.946188
  0.372     925.269    -863.875     -590.39     644.738   413200   445026   467776          413200          445026          467776 0.969557  1774.59        0.96969
  0.374     916.148    -865.108    -589.097     647.999   412264   440703   466713          412264          440703          466713 0.969006  1778.07        0.99195
  0.376     907.139    -866.347    -587.799      650.26   410590   440703   465642          410590          440703          465642 0.970625  1781.64        1.01276
  0.378      898.24    -867.591    -586.497     651.542   409586   440703   464400          409586          440703          464400 0.96907  1785.29        1.03213
   0.38      889.45    -868.841    -585.193     651.981   408081   427559   462655          408081          427559          462655 0.967321  1789.01        1.05035
  0.382     880.766    -870.097    -583.889     651.835   406691   427559   460395          406691          427559          460395 0.963643   1792.8        1.06798
  0.384     872.187    -871.358    -582.586     651.459   404856   426723   458269          404856          426723          458269 0.962067  1796.67        1.08581
  0.386     863.712    -872.625    -581.283     651.284   403165   425005   456733          403165          425005          456733 0.961806  1800.61        1.10482
  0.388     855.338    -873.897     -579.98     651.775   401522   425005   454970          401522          425005          454970 0.960467  1804.63        1.12616
   0.39     847.064    -875.175    -578.675     653.404   399931   425005   454006          399931          425005          454006 0.96156  1808.74          1.151
  0.392     838.888    -876.458    -577.366     656.611   398828   424556   452734          398828          424556          452734 0.958945  1812.96        1.18056
  0.394      830.81    -877.747    -576.048     661.774   396610   420281   451087          396610          420281          451087 0.958672  1817.31        1.21599
  0.396     822.826    -879.041    -574.717     669.194   395173   420281   448653          395173          420281          448653 0.952922  1821.81        1.25839
  0.398     814.937    -880.341    -573.369     679.081   392494   420281   447535          392494          420281          447535 0.956795  1826.49        1.30884
    0.4     807.141    -881.646    -571.999     691.558   390290   420281   446133          390290          420281          446133 0.958343  1831.38        1.36843
  0.402     799.437    -882.957    -570.601     706.679   388220   420281   445158          388220          420281          445158 0.960792  1836.53        1.43842
  0.404     791.824    -884.274    -569.171     724.456   386492   420281   443668          386492          420281          443668 0.960206  1841.97        1.52043
  0.406       784.3    -885.597    -567.702     744.916   384902   419903   442211          384902          419903          442211 0.958936  1847.75        1.61675
  0.408     776.865    -886.926    -566.189     768.157   383145   413163   440966          383145          413163          440966 0.957977  1853.94        1.73073
   0.41     769.518    -888.262    -564.627     794.422   379489   413163   438949          379489          413163          438949 0.960612  1860.61        1.86718
  0.412     762.258    -889.604    -563.009      824.17   378017   413163   437254          378017          413163          437254 0.957667  1867.87        2.03286
  0.414     755.085    -890.953    -561.328     858.124   375852   413163   436003          375852          413163          436003 0.957356  1875.85        2.23674
  0.416     747.999    -892.309    -559.573     897.265   373295   413163   434751          373295          413163          434751 0.95639  1884.72        2.49009
  0.418     740.998    -893.672    -557.734      942.74   370815   400994   433385          370815          400994          433385 0.953088  1894.71        2.80582
   0.42     734.082    -895.044    -555.797     995.649   367518   400994   431944          367518          400994          431944 0.949455  1906.09        3.19696
  0.422     727.252    -896.423    -553.746     1056.66   362379   400994   430652          362379          400994          430652 0.95042   1919.2        3.67387
  0.424     720.507    -897.812    -551.565     1125.46   351113   392624   428904          351113          392624          428904 0.967377  1934.42        4.23989
  0.426     713.847     -899.21     -549.24     1200.17   346220   391995   427690          346220          391995          427690 0.974481  1952.13        4.88606
  0.428     707.274    -900.618    -546.763     1276.74   342961   391995   426291          342961          391995          426291 0.9791  1972.67          5.586
   0.43     700.787    -902.037    -544.136     1348.81   341493   388400   424627          341493          388400          424627 0.979217  1996.25        6.29336
  0.432     694.386    -903.468    -541.377     1408.23   339782   387183   422594          339782          387183          422594 0.979601  2022.89        6.94457
  0.434     688.072     -904.91    -538.518     1446.35   338606   387183   420939          338606          387183          420939 0.980342  2052.31        7.46851
  0.436     681.844    -906.365     -535.61     1456.03   336951   387183   418711          336951          387183          418711 0.981228  2083.96        7.80168
  0.438       675.7    -907.831    -532.715     1433.53   335843   387183   416426          335843          387183          416426 0.981841  2117.04        7.90407
   0.44      669.64     -909.31    -529.897     1379.68   335180   350068   413335          335180          350068          413335 0.980115  2150.56        7.76903
  0.442      663.66      -910.8    -527.214     1299.59   334783   350068   407611          334783          350068          407611 0.972064  2183.55        7.42312
  0.444     657.759    -912.301    -524.711     1201.29   334535   350068   404265          334535          350068          404265 0.969628  2215.14        6.91668
  0.446     651.931    -913.812    -522.415     1093.69   333805   346428   400702          333805          346428          400702 0.96731  2244.66        6.30996
  0.448     646.176    -915.331    -520.337     984.891   333389   346428   396243          333389          346428          396243 0.961762  2271.69        5.66031
   0.45     640.489    -916.858    -518.472     881.071   333126   346428   392669          333126          346428          392669 0.958429  2296.06        5.01402
  0.452     634.867    -918.392    -516.807     786.221   332886   344614   388785          332886          344614          388785 0.952749  2317.77         4.4033
  0.454     629.308    -919.932     -515.32     702.346   332625   343983   381971          332625          343983          381971 0.935428  2336.95        3.84704
  0.456     623.808    -921.477    -513.989     629.947   332339   343983   379367          332339          343983          379367 0.936741  2353.81        3.35358
  0.458     618.367    -923.026    -512.793     568.543   332045   343983   371757          332045          343983          371757 0.914819  2368.61        2.92391
   0.46     612.981    -924.579    -511.709     517.101   331623   343983   368089          331623          343983          368089 0.912635   2381.6        2.55453
  0.462      607.65    -926.136    -510.719     474.356   331366   343983   366496          331366          343983          366496 0.918076  2393.02        2.23958
  0.464     602.371    -927.696    -509.806     439.013   331009   343983   365221          331009          343983          365221 0.923861  2403.11        1.97232
  0.466     597.143    -929.259    -508.958     409.857   330687   343983   364344          330687          343983          364344 0.930052  2412.04        1.74601
  0.468     591.965    -930.824    -508.163     385.814   330442   343541   362998          330442          343541          362998 0.931499     2420        1.55441
   0.47     586.836    -932.391    -507.412     365.962   329928   343541   361633          329928          343541          361633 0.933704  2427.13        1.39196
  0.472     581.756     -933.96    -506.697     349.529   329660   343541   360666          329660          343541          360666 0.936128  2433.56        1.25388
  0.474     576.722    -935.532    -506.012     335.879   329219   343541   359833          329219          343541          359833 0.939649  2439.37        1.13614
  0.476     571.734    -937.105    -505.352     324.491   329050   343541   359408          329050          343541          359408 0.943304  2444.67        1.03536
  0.478     566.791     -938.68    -504.713     314.945   328579   343541   358941          328579          343541          358941 0.947739  2449.52       0.948726
   0.48     561.894    -940.257    -504.092     306.898   328395   343541   358455          328395          343541          358455 0.949754  2453.98       0.873939
  0.482      557.04    -941.835    -503.485     300.074   328049   343541   357975          328049          343541          357975 0.952374  2458.11       0.809091
  0.484     552.229    -943.414    -502.891     294.251   327703   343541   357308          327703          343541          357308 0.953524  2461.95       0.752614
  0.486     547.461    -944.995    -502.307     289.248   327378   343541   356756          327378          343541          356756 0.955069  2465.53       0.703216
  0.488     542.734    -946.578    -501.733     284.918   327006   343541   356398          327006          343541          356398 0.957825   2468.9       0.659828
   0.49     538.049    -948.162    -501.167     281.143   326786   341645   356196          326786          341645          356196 0.960287  2472.06       0.621566
  0.492     533.405    -949.747    -500.608     277.825   326607   339710   355748          326607          339710          355748 0.960707  2475.05       0.587695
  0.494     528.801    -951.333    -500.056     274.884   326420   339710   355337          326420          339710          355337 0.961122  2477.88       0.557602
  0.496     524.237    -952.921    -499.508     272.257   326039   339150   354717          326039          339150          354717 0.96138  2480.58       0.530772
  0.498     519.712     -954.51    -498.966     269.888   325772   339150   354374          325772          339150          354374 0.962562  2483.15       0.506772
    0.5     515.225      -956.1    -498.429     267.734   325438   339150   353831          325438          339150          353831 0.962874  2485.62       0.485238
  0.502     510.777    -957.691    -497.895     265.758   325269   339150   353404          325269          339150          353404 0.962813  2487.98       0.465861
  0.504     506.366    -959.283    -497.366      263.93   325025   339150   353001          325025          339150          353001 0.963265  2490.26       0.448375
  0.506     501.992    -960.877     -496.84     262.225   324796   339150   352821          324796          339150          352821 0.96481  2492.45       0.432555
  0.508     497.655    -962.472    -496.317     260.623   324527   336982   352457          324527          336982          352457 0.965314  2494.57       0.418208
   0.51     493.354    -964.068    -495.797     259.107   324241   336982   351923          324241          336982          351923 0.964875  2496.63       0.405166
  0.512     489.089    -965.664     -495.28     257.662   324055   336982   351703          324055          336982          351703 0.965715  2498.62       0.393286
  0.514     484.859    -967.262    -494.766     256.279   323784   336982   351400          323784          336982          351400 0.966426  2500.56       0.382442
  0.516     480.664    -968.861    -494.255     254.947   323564   335373   351142          323564          335373          351142 0.967014  2502.45       0.372526
  0.518     476.504    -970.462    -493.746     253.659   323393   333452   350726          323393          333452          350726 0.966297  2504.29       0.363442
   0.52     472.377    -972.063     -493.24      252.41   323222   333272   350304          323222          333272          350304 0.96547  2506.09       0.355108
  0.522     468.284    -973.665    -492.737     251.196   323090   333272   350069          323090          333272          350069 0.965442  2507.85       0.347451
  0.524     464.224    -975.268    -492.236     250.012   322848   333272   349570          322848          333272          349570 0.964433  2509.58       0.340407
  0.526     460.197    -976.872    -491.737     248.857   322701   333272   349078          322701          333272          349078 0.962787  2511.27        0.33392
  0.528     456.202    -978.477     -491.24     247.729   322465   333272   348792          322465          333272          348792 0.963087  2512.93        0.32794
   0.53     452.239    -980.083    -490.746     246.627   322091   333272   348392          322091          333272          348392 0.963538  2514.57       0.322424
  0.532     448.308     -981.69    -490.254     245.551   321858   333257   348181          321858          333257          348181 0.964342  2516.17       0.317332
  0.534     444.408    -983.298    -489.764       244.5   321601   333257   347786          321601          333257          347786 0.964074  2517.76       0.312629
  0.536     440.539    -984.907    -489.276     243.474   321328   333257   347552          321328          333257          347552 0.965037  2519.32       0.308286
  0.538       436.7    -986.517     -488.79     242.475   321162   333257   347357          321162          333257          347357 0.965441  2520.87       0.304275
   0.54     432.892    -988.128    -488.306     241.503   320964   333257   347023          320964          333257          347023 0.965116  2522.39       0.300571
  0.542     429.113    -989.739    -487.824     240.559   320801   333257   346731          320801          333257          346731 0.964764   2523.9       0.297152
  0.544     425.364    -991.352    -487.343     239.643   320616   333257   346588          320616          333257          346588 0.965534  2525.39       0.293998
  0.546     421.644    -992.965    -486.865     238.757   320414   333257   346348          320414          333257          346348 0.965652  2526.87       0.291092
  0.548     417.952     -994.58    -486.388     237.901   320249   330902   345961          320249          330902          345961 0.964525  2528.34       0.288416
   0.55     414.289    -996.195    -485.913     237.077   320086   330902   345781          320086          330902          345781 0.964733  2529.79       0.285957
  0.552     410.654    -997.811     -485.44     236.285   319938   329818   345495          319938          329818          345495 0.964036  2531.23       0.283701
  0.554     407.047    -999.428    -484.968     235.526   319585   329818   345213          319585          329818          345213 0.964822  2532.66       0.281636
  0.556     403.467    -1001.05    -484.498     234.801   319473   329818   344978          319473          329818          344978 0.964223  2534.08        0.27975
  0.558     399.914    -1002.66    -484.029      234.11   319039   329818   344731          319039          329818          344731 0.965796   2535.5       0.278033
   0.56     396.388    -1004.28    -483.561     233.454   318909   329805   344457          318909          329805          344457 0.965077   2536.9       0.276475
  0.562     392.889     -1005.9    -483.095     232.834   318719   329805   344216          318719          329805          344216 0.965017   2538.3       0.275067
  0.564     389.416    -1007.52     -482.63      232.25   318617   329805   344010          318617          329805          344010 0.964505   2539.7       0.273801
  0.566     385.969    -1009.15    -482.166     231.701   318531   329158   343751          318531          329158          343751 0.963394  2541.08       0.272669
  0.568     382.547    -1010.77    -481.703     231.189   318469   329158   343453          318469          329158          343453 0.961712  2542.47       0.271663
   0.57     379.151    -1012.39    -481.241     230.713   318259   329158   343080          318259          329158          343080 0.960579  2543.85       0.270776
  0.572      375.78    -1014.02     -480.78     230.273   318031   329158   342834          318031          329158          342834 0.960515  2545.22       0.270003
  0.574     372.434    -1015.64     -480.32     229.868   317773   329158   342473          317773          329158          342473 0.959863   2546.6       0.269335
  0.576     369.113    -1017.27    -479.861     229.499   317456   329158   342269          317456          329158          342269 0.960882  2547.97       0.268768
  0.578     365.816    -1018.89    -479.402     229.166   317213   328579   341948          317213          328579          341948 0.960475  2549.34       0.268296
   0.58     362.542    -1020.52    -478.944     228.866   316946   328579   341720          316946          328579          341720 0.960991   2550.7       0.267913
  0.582     359.293    -1022.15    -478.487     228.601   316858   328579   341334          316858          328579          341334 0.958934  2552.07       0.267613
  0.584     356.067    -1023.78     -478.03     228.369   316562   328579   341132          316562          328579          341132 0.959823  2553.43       0.267393
  0.586     352.865    -1025.41    -477.573     228.171   316350   328579   340899          316350          328579          340899 0.959871   2554.8       0.267246
  0.588     349.685    -1027.04    -477.117     228.004   316118   327041   340672          316118          327041          340672 0.9601  2556.17       0.267169
   0.59     346.528    -1028.67    -476.661     227.868   315857   327041   340385          315857          327041          340385 0.960063  2557.53       0.267156
  0.592     343.394     -1030.3    -476.206     227.762   315771   327041   340127          315771          327041          340127 0.958926   2558.9       0.267203
  0.594     340.282    -1031.93     -475.75     227.686   315297   327041   339930          315297          327041          339930 0.961205  2560.27       0.267307
  0.596     337.192    -1033.56    -475.295     227.638   315092   327033   339796          315092          327033          339796 0.961944  2561.64       0.267463
  0.598     334.125     -1035.2     -474.84     227.618   314903   327033   339546          314903          327033          339546 0.961673  2563.01       0.267667
    0.6     331.078    -1036.83    -474.384     227.624   314741   327033   339392          314741          327033          339392 0.961879  2564.38       0.267916
  0.602     328.054    -1038.47    -473.929     227.655   314486   327033   339170          314486          327033          339170 0.962257  2565.76       0.268205
  0.604      325.05     -1040.1    -473.474     227.711   314268   327033   338835          314268          327033          338835 0.961531  2567.13       0.268532
  0.606     322.067    -1041.74    -473.018      227.79   314144   327033   338467          314144          327033          338467 0.959886  2568.51       0.268893
  0.608     319.106    -1043.38    -472.563     227.891   313968   327033   338312          313968          327033          338312 0.960202   2569.9       0.269286
   0.61     316.164    -1045.01    -472.107     228.013   313675   327033   338183          313675          327033          338183 0.961494  2571.28       0.269706
  0.612     313.244    -1046.65     -471.65     228.155   313432   327033   338092          313432          327033          338092 0.962673  2572.67        0.27015
  0.614     310.343    -1048.29    -471.194     228.315   313107   325438   337945          313107          325438          337945 0.964009  2574.06       0.270617
  0.616     307.462    -1049.93    -470.737     228.493   312883   325438   337685          312883          325438          337685 0.963831  2575.46       0.271104
  0.618     304.601    -1051.57     -470.28     228.688   312680   325438   337518          312680          325438          337518 0.964155  2576.85       0.271607
   0.62      301.76    -1053.22    -469.822     228.898   312510   325438   337317          312510          325438          337317 0.963988  2578.26       0.272125
  0.622     298.938    -1054.86    -469.364     229.122   312214   325438   337107          312214          325438          337107 0.964671  2579.66       0.272654
  0.624     296.136     -1056.5    -468.906     229.359   312052   324822   336995          312052          324822          336995 0.965079  2581.07       0.273194
  0.626     293.352    -1058.14    -468.447     229.608   311907   324822   336768          311907          324822          336768 0.9645  2582.48        0.27374
  0.628     290.587    -1059.79    -467.988     229.868   311739   324822   336606          311739          324822          336606 0.964488   2583.9       0.274293
   0.63     287.841    -1061.43    -467.528     230.138   311543   324822   336212          311543          324822          336212 0.963049  2585.32       0.274849
  0.632     285.114    -1063.08    -467.067     230.416   311288   324822   336039          311288          324822          336039 0.963621  2586.74       0.275406
  0.634     282.404    -1064.73    -466.606     230.702   310905   321391   335901          310905          321391          335901 0.965357  2588.17       0.275964
  0.636     279.713    -1066.37    -466.144     230.995   310752   321391   335728          310752          321391          335728 0.96525   2589.6       0.276519
  0.638      277.04    -1068.02    -465.682     231.294   310692   321391   335548          310692          321391          335548 0.964359  2591.03       0.277071
   0.64     274.384    -1069.67    -465.219     231.597   310581   321381   335413          310581          321381          335413 0.964057  2592.47       0.277619
  0.642     271.747    -1071.32    -464.755     231.904   310410   321381   335141          310410          321381          335141 0.96317  2593.91       0.278159
  0.644     269.126    -1072.97    -464.291     232.214   310207   321381   334952          310207          321381          334952 0.963097  2595.35       0.278692
  0.646     266.523    -1074.62    -463.827     232.526   309860   321381   334605          309860          321381          334605 0.962932   2596.8       0.279216
  0.648     263.937    -1076.27    -463.361     232.839   309665   321381   334422          309665          321381          334422 0.962941  2598.25        0.27973
   0.65     261.368    -1077.92    -462.895     233.152   309585   321381   334263          309585          321381          334263 0.962259  2599.71       0.280232
  0.652     258.816    -1079.58    -462.429     233.465   309313   321381   334137          309313          321381          334137 0.963158  2601.17       0.280721
  0.654     256.281    -1081.23    -461.961     233.775   309169   321381   334014          309169          321381          334014 0.963116  2602.63       0.281196
  0.656     253.762    -1082.88    -461.494     234.084   308987   321381   333901          308987          321381          333901 0.963373   2604.1       0.281657
  0.658      251.26    -1084.54    -461.025      234.39   308783   321381   333771          308783          321381          333771 0.963607  2605.56       0.282102
   0.66     248.773    -1086.19    -460.556     234.692   308443   321381   333611          308443          321381          333611 0.96461  2607.04       0.282529
  0.662     246.303    -1087.85    -460.086      234.99   308201   321381   333487          308201          321381          333487 0.965213  2608.51        0.28294
  0.664     243.849    -1089.51    -459.616     235.283   307890   321381   333312          307890          321381          333312 0.965941  2609.99       0.283332
  0.666      241.41    -1091.16    -459.145      235.57   307675   321381   333102          307675          321381          333102 0.965791  2611.47       0.283704
  0.668     238.988    -1092.82    -458.674     235.851   307436   321381   332914          307436          321381          332914 0.965997  2612.95       0.284057
   0.67      236.58    -1094.48    -458.202     236.125   307019   321381   332727          307019          321381          332727 0.967545  2614.44       0.284389
  0.672     234.188    -1096.14    -457.729     236.391   306845   321381   332570          306845          321381          332570 0.967617  2615.93       0.284699
  0.674     231.811     -1097.8    -457.256      236.65   306658   319046   332395          306658          319046          332395 0.967657  2617.42       0.284988
  0.676      229.45    -1099.46    -456.783     236.901   306474   319046   332235          306474          319046          332235 0.967769  2618.91       0.285254
  0.678     227.103    -1101.12    -456.309     237.143   306349   319046   332063          306349          319046          332063 0.967374   2620.4       0.285497
   0.68     224.771    -1102.79    -455.834     237.376   306102   319046   331911          306102          319046          331911 0.967965   2621.9       0.285717
  0.682     222.454    -1104.45    -455.359     237.599   305884   319046   331705          305884          319046          331705 0.967973   2623.4       0.285912
  0.684     220.151    -1106.11    -454.884     237.813   305658   319046   331594          305658          319046          331594 0.968733   2624.9       0.286083
  0.686     217.863    -1107.78    -454.408     238.016   305415   319046   331433          305415          319046          331433 0.969268   2626.4        0.28623
  0.688     215.589    -1109.44    -453.932     238.209   305296   319046   331182          305296          319046          331182 0.968365  2627.91       0.286351
   0.69     213.329    -1111.11    -453.455     238.391   305162   319046   331056          305162          319046          331056 0.968399  2629.41       0.286447
  0.692     211.084    -1112.78    -452.978     238.562   305071   319046   330939          305071          319046          330939 0.968129  2630.92       0.286518
  0.694     208.852    -1114.44    -452.501     238.722   304916   319046   330789          304916          319046          330789 0.968019  2632.43       0.286563
  0.696     206.634    -1116.11    -452.023     238.871   304803   318785   330635          304803          318785          330635 0.967571  2633.94       0.286583
  0.698      204.43    -1117.78    -451.545     239.008   304548   318785   330445          304548          318785          330445 0.967833  2635.45       0.286577
    0.7     202.239    -1119.45    -451.067     239.134   304335   316985   330291          304335          316985          330291 0.96805  2636.96       0.286545
  0.702     200.062    -1121.12    -450.589     239.248   303976   314958   330136          303976          314958          330136 0.969264  2638.47       0.286488
  0.704     197.898    -1122.79     -450.11      239.35   303879   314958   329995          303879          314958          329995 0.968872  2639.98       0.286405
  0.706     195.747    -1124.46    -449.631     239.441   303668   314958   329850          303668          314958          329850 0.969191   2641.5       0.286297
  0.708      193.61    -1126.13    -449.152      239.52   303487   314958   329627          303487          314958          329627 0.968781  2643.01       0.286165
   0.71     191.485    -1127.81    -448.673     239.587   303340   314958   329469          303340          314958          329469 0.968599  2644.52       0.286007
  0.712     189.373    -1129.48    -448.194     239.643   302995   314958   329269          302995          314958          329269 0.969477  2646.03       0.285825
  0.714     187.274    -1131.15    -447.715     239.687   302873   314958   329122          302873          314958          329122 0.969247  2647.55        0.28562
  0.716     185.188    -1132.83    -447.235     239.719   302638   314958   328815          302638          314958          328815 0.968764  2649.06       0.285391
  0.718     183.114     -1134.5    -446.756      239.74   302550   314958   328704          302550          314958          328704 0.96861  2650.57        0.28514
   0.72     181.053    -1136.18    -446.276      239.75   302354   314958   328596          302354          314958          328596 0.969185  2652.08       0.284867
  0.722     179.004    -1137.86    -445.797     239.749   302108   314958   328317          302108          314958          328317 0.968949  2653.59       0.284572
  0.724     176.967    -1139.53    -445.317     239.738   301862   314958   328225          301862          314958          328225 0.970031   2655.1       0.284257
  0.726     174.943    -1141.21    -444.838     239.715   301683   314958   327998          301683          314958          327998 0.969778  2656.61       0.283922
  0.728      172.93    -1142.89    -444.359     239.683   301604   314958   327829          301604          314958          327829 0.969249  2658.12       0.283568
   0.73      170.93    -1144.57    -443.879      239.64   301447   314958   327714          301447          314958          327714 0.969579  2659.63       0.283197
  0.732     168.941    -1146.25      -443.4     239.588   301291   314958   327487          301291          314958          327487 0.969131  2661.13       0.282808
  0.734     166.964    -1147.93    -442.921     239.526   301165   314958   327367          301165          314958          327367 0.969202  2662.64       0.282404
  0.736     164.999    -1149.61    -442.442     239.455   300996   314958   327177          300996          314958          327177 0.969096  2664.14       0.281985
  0.738     163.045    -1151.29    -441.963     239.375   300843   312846   327082          300843          312846          327082 0.969499  2665.64       0.281552
   0.74     161.102    -1152.98    -441.484     239.287   300728   312846   326901          300728          312846          326901 0.969042  2667.14       0.281106
  0.742     159.171    -1154.66    -441.006     239.192   300555   312262   326552          300555          312262          326552 0.967867  2668.64        0.28065
  0.744     157.251    -1156.34    -440.528     239.088   300401   312262   326320          300401          312262          326320 0.967402  2670.14       0.280183
  0.746     155.343    -1158.03     -440.05     238.978   300252   312262   326203          300252          312262          326203 0.967669  2671.63       0.279708
  0.748     153.445    -1159.71    -439.572     238.861   300138   312262   326076          300138          312262          326076 0.967592  2673.13       0.279225
   0.75     151.558     -1161.4    -439.094     238.738   299951   312262   325915          299951          312262          325915 0.967755  2674.62       0.278737
  0.752     149.682    -1163.09    -438.617     238.609   299822   312262   325698          299822          312262          325698 0.967148  2676.11       0.278243
  0.754     147.817    -1164.77     -438.14     238.475   299651   312262   325543          299651          312262          325543 0.967233   2677.6       0.277746
  0.756     145.963    -1166.46    -437.663     238.336   299469   312262   325440          299469          312262          325440 0.967722  2679.08       0.277247
  0.758     144.119    -1168.15    -437.186     238.193   299351   312262   325193          299351          312262          325193 0.966821  2680.57       0.276748
   0.76     142.286    -1169.84     -436.71     238.046   299138   310992   324991          299138          310992          324991 0.966868  2682.05       0.276249
  0.762     140.463    -1171.53    -436.234     237.896   298985   310992   324849          298985          310992          324849 0.966921  2683.53       0.275752
  0.764     138.651    -1173.22    -435.759     237.744   298706   310992   324598          298706          310992          324598 0.967146  2685.01       0.275259
  0.766     136.849    -1174.91    -435.283     237.589   298590   310992   324422          298590          310992          324422 0.966772  2686.49       0.274771
  0.768     135.057     -1176.6    -434.808     237.433   298452   310992   324312          298452          310992          324312 0.966964  2687.96        0.27429
   0.77     133.275    -1178.29    -434.333     237.275   298306   310992   324167          298306          310992          324167 0.966954  2689.44       0.273815
  0.772     131.503    -1179.98    -433.859     237.117   298209   310992   323955          298209          310992          323955 0.966148  2690.91        0.27335
  0.774     129.742    -1181.68    -433.385     236.959   298045   310992   323799          298045          310992          323799 0.966146  2692.38       0.272895
  0.776      127.99    -1183.37    -432.911     236.802   297647   310992   323611          297647          310992          323611 0.967499  2693.85       0.272451
  0.778     126.247    -1185.07    -432.438     236.645   297442   310992   323426          297442          310992          323426 0.967683  2695.32        0.27202
   0.78     124.515    -1186.76    -431.965      236.49   297350   307162   323310          297350          307162          323310 0.967539  2696.78       0.271603
  0.782     122.792    -1188.46    -431.492     236.337   297204   307162   323028          297204          307162          323028 0.966667  2698.25       0.271201
  0.784     121.079    -1190.15    -431.019     236.187   297079   307162   322871          297079          307162          322871 0.966468  2699.71       0.270815
  0.786     119.375    -1191.85    -430.547     236.039   296873   307162   322586          296873          307162          322586 0.965975  2701.17       0.270446
  0.788      117.68    -1193.55    -430.075     235.895   296800   307162   322441          296800          307162          322441 0.965519  2702.63       0.270095
   0.79     115.995    -1195.25    -429.604     235.755   296660   307162   322283          296660          307162          322283 0.965401  2704.09       0.269763
  0.792     114.319    -1196.94    -429.132     235.619   296587   307162   322141          296587          307162          322141 0.964893  2705.55       0.269451
  0.794     112.652    -1198.64    -428.661     235.488   296465   307124   321960          296465          307124          321960 0.964412  2707.01        0.26916
  0.796     110.995    -1200.34     -428.19     235.362   296347   307124   321832          296347          307124          321832 0.964244  2708.46        0.26889
  0.798     109.346    -1202.04     -427.72     235.242   296104   307124   321667          296104          307124          321667 0.964709  2709.92       0.268643
    0.8     107.707    -1203.74    -427.249     235.127   295914   307124   321507          295914          307124          321507 0.96483  2711.37       0.268419
  0.802     106.076    -1205.45    -426.779     235.019   295776   307124   321396          295776          307124          321396 0.964932  2712.83       0.268218
  0.804     104.454    -1207.15    -426.309     234.918   295444   307019   321129          295444          307019          321129 0.965344  2714.29       0.268041
  0.806     102.841    -1208.85    -425.839     234.824   295360   307019   320935          295360          307019          320935 0.964541  2715.74       0.267889
  0.808     101.236    -1210.55     -425.37     234.737   295233   307019   320712          295233          307019          320712 0.963847   2717.2       0.267762
   0.81     99.6407    -1212.26      -424.9     234.658   295084   307019   320496          295084          307019          320496 0.963352  2718.65        0.26766
  0.812     98.0534    -1213.96    -424.431     234.586   294933   307019   320291          294933          307019          320291 0.962969  2720.11       0.267584
  0.814     96.4746    -1215.67    -423.962     234.523   294560   307019   320098          294560          307019          320098 0.964327  2721.56       0.267534
  0.816     94.9043    -1217.37    -423.493     234.468   294349   307019   319874          294349          307019          319874 0.964364  2723.02       0.267509
  0.818     93.3423    -1219.08    -423.024     234.422   294187   306872   319759          294187          306872          319759 0.964848  2724.48       0.267511
   0.82     91.7886    -1220.79    -422.555     234.385   294111   306872   319651          294111          306872          319651 0.964719  2725.93       0.267539
  0.822     90.2432    -1222.49    -422.087     234.356   294010   305688   319531          294010          305688          319531 0.964644  2727.39       0.267593
  0.824      88.706     -1224.2    -421.618     234.336   293870   305688   319303          293870          305688          319303 0.964083  2728.85       0.267673
  0.826     87.1768    -1225.91    -421.149     234.326   293793   305688   319207          293793          305688          319207 0.963963  2730.31       0.267778
  0.828     85.6557    -1227.62    -420.681     234.325   293632   305415   319099          293632          305415          319099 0.964341  2731.78        0.26791
   0.83     84.1427    -1229.33    -420.212     234.334   293504   305415   318977          293504          305415          318977 0.964331  2733.24       0.268067
  0.832     82.6375    -1231.04    -419.743     234.351   293463   305415   318789          293463          305415          318789 0.963198  2734.71       0.268249
  0.834     81.1402    -1232.75    -419.275     234.379   293354   305415   318294          293354          305415          318294 0.960379  2736.18       0.268456
  0.836     79.6508    -1234.46    -418.806     234.415   293079   305415   318160          293079          305415          318160 0.961412  2737.65       0.268687
  0.838     78.1691    -1236.17    -418.337     234.462   292851   305415   318007          292851          305415          318007 0.961965  2739.12       0.268942
   0.84     76.6951    -1237.88    -417.868     234.517   292817   305415   317856          292817          305415          317856 0.961125  2740.59       0.269221
  0.842     75.2288    -1239.59    -417.399     234.582   292646   305415   317729          292646          305415          317729 0.961419  2742.07       0.269522
  0.844     73.7701    -1241.31     -416.93     234.657   292564   305415   317648          292564          305415          317648 0.961352  2743.55       0.269846
  0.846     72.3189    -1243.02     -416.46     234.741   292431   305415   317545          292431          305415          317545 0.961433  2745.03       0.270192
  0.848     70.8751    -1244.74    -415.991     234.834   292153   305415   317408          292153          305415          317408 0.962335  2746.52       0.270559
   0.85     69.4389    -1246.45    -415.521     234.936   291972   305415   317252          291972          305415          317252 0.962397     2748       0.270947
  0.852       68.01    -1248.17    -415.051     235.048   291826   302672   317126          291826          302672          317126 0.9624  2749.49       0.271354
  0.854     66.5884    -1249.88    -414.581     235.168   291630   302672   317020          291630          302672          317020 0.962893  2750.99       0.271781
  0.856     65.1741     -1251.6     -414.11     235.297   291416   302672   316714          291416          302672          316714 0.962126  2752.49       0.272226
  0.858      63.767    -1253.32    -413.639     235.434   291159   302672   316593          291159          302672          316593 0.962997  2753.99       0.272688
   0.86     62.3671    -1255.03    -413.168      235.58   291078   302672   316457          291078          302672          316457 0.962522  2755.49       0.273168
  0.862     60.9743    -1256.75    -412.697     235.734   290691   302672   316308          290691          302672          316308 0.964126     2757       0.273663
  0.864     59.5886    -1258.47    -412.226     235.896   290591   302672   316183          290591          302672          316183 0.963912  2758.51       0.274174
  0.866     58.2099    -1260.19    -411.754     236.066   290338   302672   315975          290338          302672          315975 0.964205  2760.02       0.274699
  0.868     56.8381    -1261.91    -411.281     236.244   290202   301824   315875          290202          301824          315875 0.964455  2761.54       0.275239
   0.87     55.4733    -1263.63    -410.809     236.429   289981   301824   315660          289981          301824          315660 0.964507  2763.06       0.275791
  0.872     54.1154    -1265.35    -410.336     236.621   289822   301824   315565          289822          301824          315565 0.964987  2764.59       0.276355
  0.874     52.7643    -1267.07    -409.862      236.82   289724   301824   315442          289724          301824          315442 0.964794  2766.12        0.27693
  0.876     51.4199    -1268.79    -409.388     237.026   289561   301824   315336          289561          301824          315336 0.965158  2767.65       0.277516
  0.878     50.0823    -1270.52    -408.914     237.239   289420   301824   315203          289420          301824          315203 0.965176  2769.19       0.278112
   0.88     48.7514    -1272.24    -408.439     237.457   289340   301824   315030          289340          301824          315030 0.964446  2770.73       0.278716
  0.882     47.4272    -1273.96    -407.964     237.682   289240   301824   314878          289240          301824          314878 0.963984  2772.28       0.279329
  0.884     46.1095    -1275.69    -407.489     237.913   289182   301824   314705          289182          301824          314705 0.963056  2773.83       0.279949
  0.886     44.7984    -1277.41    -407.013     238.149   288998   301824   314573          288998          301824          314573 0.963318  2775.39       0.280576
  0.888     43.4938    -1279.14    -406.536      238.39   288871   301824   314428          288871          301824          314428 0.963065  2776.95       0.281209
   0.89     42.1956    -1280.86    -406.059     238.636   288733   301824   314280          288733          301824          314280 0.962862  2778.51       0.281847
  0.892     40.9039    -1282.59    -405.581     238.887   288629   301824   314092          288629          301824          314092 0.962108  2780.08       0.282489
  0.894     39.6185    -1284.31    -405.103     239.143   288496   301824   313875          288496          301824          313875 0.961363  2781.65       0.283136
  0.896     38.3395    -1286.04    -404.625     239.402   288265   301824   313767          288265          301824          313767 0.962127  2783.23       0.283785
  0.898     37.0668    -1287.77    -404.146     239.666   288094   301824   313685          288094          301824          313685 0.962628  2784.81       0.284438
    0.9     35.8003     -1289.5    -403.666     239.934   287745   301824   313535          287745          301824          313535 0.963913   2786.4       0.285092
  0.902       34.54    -1291.23    -403.186     240.205   287702   301690   313448          287702          301690          313448 0.963486  2787.99       0.285748
  0.904     33.2859    -1292.96    -402.705      240.48   287574   301690   313309          287574          301690          313309 0.96327  2789.58       0.286405
  0.906     32.0379    -1294.68    -402.224     240.758   287419   301690   313228          287419          301690          313228 0.963619  2791.18       0.287063
  0.908      30.796    -1296.42    -401.742     241.038   287274   301690   313114          287274          301690          313114 0.96363  2792.79        0.28772
   0.91     29.5601    -1298.15     -401.26     241.322   287139   301690   312980          287139          301690          312980 0.963433   2794.4       0.288377
  0.912     28.3303    -1299.88    -400.777     241.608   287028   301690   312897          287028          301690          312897 0.963385  2796.01       0.289034
  0.914     27.1064    -1301.61    -400.294     241.896   286937   301690   312719          286937          301690          312719 0.96251  2797.63       0.289689
  0.916     25.8885    -1303.34    -399.809     242.187   286344   301659   312645          286344          301659          312645 0.965732  2799.25       0.290343
  0.918     24.6764    -1305.08    -399.325     242.479   286116   301659   312480          286116          301659          312480 0.965995  2800.88       0.290995
   0.92     23.4702    -1306.81     -398.84     242.774   285979   301659   312395          285979          301659          312395 0.966187  2802.51       0.291645
  0.922     22.2698    -1308.54    -398.354      243.07   285853   301659   312319          285853          301659          312319 0.966333  2804.15       0.292292
  0.924     21.0751    -1310.28    -397.867     243.367   285422   298768   312191          285422          298768          312191 0.968094  2805.79       0.292937
  0.926     19.8862    -1312.01     -397.38     243.666   285321   298768   311985          285321          298768          311985 0.967294  2807.44       0.293579
  0.928      18.703    -1313.75    -396.893     243.966   285199   298768   311775          285199          298768          311775 0.966618  2809.09       0.294219
   0.93     17.5255    -1315.48    -396.404     244.267   285114   297548   311628          285114          297548          311628 0.966099  2810.74       0.294855
  0.932     16.3536    -1317.22    -395.916     244.569   284931   297548   311488          284931          297548          311488 0.966266   2812.4       0.295489
  0.934     15.1873    -1318.96    -395.426     244.872   284767   297548   311358          284767          297548          311358 0.966368  2814.07       0.296119
  0.936     14.0265     -1320.7    -394.936     245.176   284602   297548   311210          284602          297548          311210 0.966349  2815.74       0.296746
  0.938     12.8713    -1322.44    -394.445      245.48   284466   297548   311112          284466          297548          311112 0.966458  2817.41        0.29737
   0.94     11.7215    -1324.17    -393.954     245.785   284347   297548   311033          284347          297548          311033 0.966553  2819.09       0.297991
  0.942     10.5772    -1325.91    -393.462     246.091   284044   297548   310905          284044          297548          310905 0.967529  2820.77       0.298608
  0.944     9.43835    -1327.65     -392.97     246.396   283923   297548   310764          283923          297548          310764 0.967269  2822.46       0.299223
  0.946     8.30485    -1329.39    -392.477     246.703   283738   297548   310487          283738          297548          310487 0.966566  2824.15       0.299834
  0.948     7.17669    -1331.14    -391.983     247.009   283561   297548   310325          283561          297548          310325 0.966561  2825.84       0.300442
   0.95     6.05385    -1332.88    -391.489     247.316   283396   297548   310186          283396          297548          310186 0.966642  2827.54       0.301048
  0.952     4.93628    -1334.62    -390.994     247.623   283296   295491   310072          283296          295491          310072 0.966449  2829.25       0.301651
  0.954     3.82397    -1336.36    -390.498      247.93   283153   295491   309971          283153          295491          309971 0.966578  2830.96       0.302251
  0.956     2.71687     -1338.1    -390.002     248.238   283064   294225   309860          283064          294225          309860 0.966283  2832.67       0.302849
  0.958     1.61496    -1339.85    -389.505     248.545   282910   294225   309689          282910          294225          309689 0.966006  2834.39       0.303444
   0.96    0.518191    -1341.59    -389.008     248.853   282844   294225   309457          282844          294225          309457 0.964743  2836.11       0.304038
  0.962   -0.573456    -1343.34     -388.51      249.16   282765   294225   309347          282765          294225          309347 0.964332  2837.84       0.304629
  0.964    -1.66002    -1345.08    -388.011     249.468   282651   294225   309146          282651          294225          309146 0.963519  2839.57       0.305219
  0.966    -2.74152    -1346.83    -387.512     249.776   282433   294225   309005          282433          294225          309005 0.963817  2841.31       0.305807
  0.968      -3.818    -1348.58    -387.012     250.083   282344   294225   308817          282344          294225          308817 0.962931  2843.05       0.306394
   0.97    -4.88949    -1350.32    -386.512     250.391   281954   294225   308678          281954          294225          308678 0.964437  2844.79        0.30698
  0.972    -5.95601    -1352.07     -386.01     250.699   281905   294225   308585          281905          294225          308585 0.963967  2846.54       0.307565
  0.974    -7.01761    -1353.82    -385.509     251.007   281774   294225   308460          281774          294225          308460 0.963792  2848.29       0.308149
  0.976     -8.0743    -1355.57    -385.006     251.315   281639   294225   308336          281639          294225          308336 0.963638  2850.05       0.308732
  0.978    -9.12612    -1357.32    -384.504     251.623   281371   294225   308246          281371          294225          308246 0.964647  2851.81       0.309315
   0.98    -10.1731    -1359.07        -384      251.93   281248   294225   308105          281248          294225          308105 0.96431  2853.58       0.309898
  0.982    -11.2153    -1360.82    -383.496     252.238   281140   294225   307966          281140          294225          307966 0.963871  2855.35       0.310481
  0.984    -12.2526    -1362.57    -382.991     252.546   280969   294225   307879          280969          294225          307879 0.964186  2857.12       0.311064
  0.986    -13.2853    -1364.32    -382.486     252.854   280837   294225   307790          280837          294225          307790 0.964216   2858.9       0.311648
  0.988    -14.3132    -1366.07     -381.98     253.163   280720   294225   307618          280720          294225          307618 0.963555  2860.69       0.312232
   0.99    -15.3364    -1367.82    -381.473     253.471   280599   294225   307491          280599          294225          307491 0.963217  2862.48       0.312816
  0.992    -16.3549    -1369.57    -380.966     253.779   280408   294225   307386          280408          294225          307386 0.9635  2864.27       0.313401
  0.994    -17.3688    -1371.33    -380.458     254.087   279995   294225   307288          279995          294225          307288 0.965372  2866.07       0.313988
  0.996    -18.3781    -1373.08    -379.949     254.395   279835   294225   307205          279835          294225          307205 0.965649  2867.87       0.314575
  0.998    -19.3827    -1374.84     -379.44     254.703   279695   294225   307126          279695          294225          307126 0.965806  2869.68       0.315163
      1    -20.3829    -1376.59    -378.931     255.012   279564   294225   307000          279564          294225          307000 0.965559  2871.49       0.315752
  1.002    -21.3785    -1378.35     -378.42      255.32   279521   294225   306877          279521          294225          306877 0.964721   2873.3       0.316343
  1.004    -22.3696     -1380.1    -377.909     255.628   279330   294225   306750          279330          294225          306750 0.964833  2875.12       0.316935
  1.006    -23.3562    -1381.86    -377.398     255.936   279177   294225   306616          279177          294225          306616 0.964625  2876.95       0.317528
  1.008    -24.3384    -1383.62    -376.886     256.244   278894   294225   306479          278894          294225          306479 0.965295  2878.78       0.318122
   1.01    -25.3161    -1385.37    -376.373     256.552   278620   294225   306283          278620          294225          306283 0.965564  2880.61       0.318718
  1.012    -26.2894    -1387.13    -375.859     256.859   278323   294225   306224          278323          294225          306224 0.966881  2882.45       0.319315
  1.014    -27.2584    -1388.89    -375.345     257.167   278163   294225   306140          278163          294225          306140 0.967142  2884.29       0.319914
  1.016     -28.223    -1390.65    -374.831     257.474   277922   290696   305960          277922          290696          305960 0.967342  2886.14       0.320514
  1.018    -29.1833    -1392.41    -374.315     257.781   277803   290696   305871          277803          290696          305871 0.967339  2887.99       0.321114
   1.02    -30.1393    -1394.17      -373.8     258.088   277708   289828   305745          277708          289828          305745 0.966919  2889.85       0.321716
  1.022    -31.0911    -1395.93    -373.283     258.394   277640   289828   305596          277640          289828          305596 0.966149  2891.71       0.322319
  1.024    -32.0385    -1397.69    -372.766       258.7   277546   289828   305459          277546          289828          305459 0.965613  2893.58       0.322923
  1.026    -32.9818    -1399.46    -372.248     259.005   277415   289828   305242          277415          289828          305242 0.964766  2895.45       0.323528
  1.028    -33.9209    -1401.22     -371.73      259.31   277273   289828   304928          277273          289828          304928 0.963405  2897.33       0.324134
   1.03    -34.8558    -1402.98    -371.211     259.614   277117   289828   304696          277117          289828          304696 0.962708  2899.21        0.32474
  1.032    -35.7865    -1404.75    -370.691     259.917   276883   289828   304597          276883          289828          304597 0.96339  2901.09       0.325346
  1.034    -36.7131    -1406.51    -370.171      260.22   276753   289828   304416          276753          289828          304416 0.962861  2902.98       0.325953
  1.036    -37.6356    -1408.27    -369.651     260.522   276330   289828   304316          276330          289828          304316 0.964831  2904.88       0.326559
  1.038    -38.5541    -1410.04    -369.129     260.822   276207   289828   304219          276207          289828          304219 0.964885  2906.78       0.327166
   1.04    -39.4685    -1411.81    -368.607     261.122   276002   289828   304104          276002          289828          304104 0.965361  2908.68       0.327772
  1.042    -40.3788    -1413.57    -368.085     261.421   275868   289828   304023          275868          289828          304023 0.965586  2910.59       0.328378
  1.044    -41.2852    -1415.34    -367.562     261.718   275622   289828   303851          275622          289828          303851 0.96593   2912.5       0.328983
  1.046    -42.1875    -1417.11    -367.038     262.014   275550   289828   303774          275550          289828          303774 0.96577  2914.42       0.329587
  1.048    -43.0859    -1418.87    -366.514     262.309   275358   289828   303583          275358          289828          303583 0.965632  2916.35       0.330189
   1.05    -43.9804    -1420.64    -365.989     262.603   275237   289828   303492          275237          289828          303492 0.965696  2918.27       0.330791
  1.052    -44.8709    -1422.41    -365.463     262.895   274873   289828   303375          274873          289828          303375 0.967198  2920.21       0.331391
  1.054    -45.7576    -1424.18    -364.937     263.185   274766   289828   303237          274766          289828          303237 0.966914  2922.14       0.331989
  1.056    -46.6403    -1425.95     -364.41     263.473   274564   289828   303126          274564          289828          303126 0.967442  2924.09       0.332586
  1.058    -47.5193    -1427.72    -363.883      263.76   274428   289828   303055          274428          289828          303055 0.967789  2926.03        0.33318
   1.06    -48.3944    -1429.49    -363.355     264.045   274380   289828   302995          274380          289828          302995 0.967591  2927.99       0.333771
  1.062    -49.2656    -1431.27    -362.827     264.328   274178   289828   302802          274178          289828          302802 0.967516  2929.94        0.33436
  1.064    -50.1331    -1433.04    -362.298     264.609   274058   289828   302733          274058          289828          302733 0.967712  2931.91       0.334946
  1.066    -50.9969    -1434.81    -361.769     264.888   273901   289828   302640          273901          289828          302640 0.967964  2933.87        0.33553
  1.068    -51.8569    -1436.59    -361.239     265.165   273773   289828   302473          273773          289828          302473 0.96758  2935.84        0.33611
   1.07    -52.7131    -1438.36    -360.708     265.439   273620   289828   302357          273620          289828          302357 0.96767  2937.82       0.336686
  1.072    -53.5657    -1440.13    -360.177     265.711   273468   289443   302222          273468          289443          302222 0.967629   2939.8       0.337259
  1.074    -54.4146    -1441.91    -359.645     265.981   273329   289443   302144          273329          289443          302144 0.96785  2941.78       0.337829
  1.076    -55.2598    -1443.68    -359.113     266.249   273150   289443   302011          273150          289443          302011 0.967969  2943.77       0.338394
  1.078    -56.1014    -1445.46     -358.58     266.513   272970   289443   301932          272970          289443          301932 0.968415  2945.77       0.338956
   1.08    -56.9393    -1447.24    -358.047     266.776   272830   289443   301878          272830          289443          301878 0.968754  2947.77       0.339513
  1.082    -57.7737    -1449.01    -357.513     267.036   272677   285425   301748          272677          285425          301748 0.968697  2949.77       0.340067
  1.084    -58.6045    -1450.79    -356.979     267.293   272540   285425   301489          272540          285425          301489 0.967776  2951.78       0.340616
  1.086    -59.4317    -1452.57    -356.444     267.548   272453   285425   301316          272453          285425          301316 0.967084  2953.79       0.341161
  1.088    -60.2554    -1454.35    -355.908       267.8   272249   285425   301119          272249          285425          301119 0.966961  2955.81       0.341701
   1.09    -61.0755    -1456.13    -355.373      268.05   272140   285425   300941          272140          285425          300941 0.966387  2957.83       0.342237
  1.092    -61.8922    -1457.91    -354.836     268.296   271984   285425   300758          271984          285425          300758 0.966078  2959.86       0.342768
  1.094    -62.7054    -1459.69    -354.299     268.541   271739   285425   300579          271739          285425          300579 0.966351  2961.89       0.343295
  1.096    -63.5151    -1461.47    -353.762     268.782   271651   285425   300428          271651          285425          300428 0.965836  2963.93       0.343817
  1.098    -64.3213    -1463.25    -353.224     269.021   271524   285425   300291          271524          285425          300291 0.965635  2965.97       0.344335
    1.1    -65.1242    -1465.03    -352.686     269.258   271354   285425   300092          271354          285425          300092 0.965316  2968.01       0.344849
  1.102    -65.9236    -1466.82    -352.147     269.492   271219   285425   299986          271219          285425          299986 0.965357  2970.06       0.345358
  1.104    -66.7197     -1468.6    -351.608     269.723   271057   285425   299773          271057          285425          299773 0.964908  2972.12       0.345863
  1.106    -67.5123    -1470.38    -351.068     269.952   270868   285425   299653          270868          285425          299653 0.965199  2974.17       0.346364
  1.108    -68.3017    -1472.17    -350.528     270.179   270672   285425   299515          270672          285425          299515 0.965441  2976.24       0.346861
