# n_walkers  560  n_cull  1  simple log(alpha)  -0.001784121793501292
#   T     log_Z(T)      F(T)        U(T)       Cvp(T)    low_pct_i(T) mode_i(T) high_pct_i(T) low_pct_iter(T)  mode_iter(T)   high_pct_iter(T) Z_fract(T)   V(T)   thermal_exp(T)
   0.01     59145.4    -604.872    -603.619     121.083   748376   748523   748523          748376          748523          748523 0.907462  3052.43    -0.00515924
  0.012     49065.1    -604.882    -603.377     121.156   748339   748523   748523          748339          748523          748523 0.917938  3052.39    -0.00647334
  0.014     41864.9    -604.894    -603.134     121.249   748310   748523   748523          748310          748523          748523 0.91635  3052.35    -0.00692022
  0.016     36464.8    -604.905    -602.892     121.356   748278   748523   748523          748278          748523          748523 0.915301  3052.31    -0.00694868
  0.018     32264.7    -604.917    -602.649     121.475   748254   748523   748523          748254          748523          748523 0.904142  3052.27    -0.00678215
   0.02     28904.7    -604.929    -602.406     121.605   748220   748523   748523          748220          748523          748523 0.898348  3052.22    -0.00653083
  0.022     26155.6    -604.942    -602.163     121.746   748178   748523   748523          748178          748523          748523 0.896591  3052.19    -0.00624884
  0.024     23864.6    -604.954    -601.919     121.898   748142   748523   748523          748142          748523          748523 0.889055  3052.15    -0.00596223
  0.026     21926.2    -604.967    -601.675      122.06   748080   748523   748523          748080          748523          748523 0.894053  3052.11    -0.00568263
  0.028     20264.7    -604.981    -601.431     122.234   748041   748523   748523          748041          748523          748523 0.885409  3052.08      -0.005414
   0.03     18824.7    -604.995    -601.186     122.417   747986   748523   748523          747986          748523          748523 0.882397  3052.05    -0.00515616
  0.032     17564.7    -605.009    -600.941      122.61   747923   748523   748523          747923          748523          748523 0.880669  3052.02    -0.00490675
  0.034       16453    -605.023    -600.696     122.814   747838   748523   748523          747838          748523          748523 0.885335  3051.99    -0.00466248
  0.036     15464.8    -605.038     -600.45     123.028   747795   748523   748523          747795          748523          748523 0.873962  3051.96    -0.00441992
  0.038     14580.7    -605.053    -600.203     123.254   747697   748523   748523          747697          748523          748523 0.877527  3051.93    -0.00417611
   0.04     13784.9    -605.068    -599.957     123.494   747629   748523   748523          747629          748523          748523 0.871318  3051.91    -0.00392897
  0.042       13065    -605.084    -599.709     123.752   747517   748523   748523          747517          748523          748523 0.87398  3051.88    -0.00367754
  0.044     12410.5      -605.1    -599.462     124.032   747433   748523   748523          747433          748523          748523 0.868478  3051.86    -0.00342216
  0.046     11812.9    -605.117    -599.213     124.339   747274   748523   748523          747274          748523          748523 0.877016  3051.84    -0.00316439
  0.048     11265.2    -605.134    -598.964      124.68   747094   748523   748523          747094          748523          748523 0.887891  3051.82    -0.00290701
   0.05     10761.2    -605.151    -598.715     125.062   746952   748523   748523          746952          748523          748523 0.89094  3051.81     -0.0026538
  0.052     10296.1    -605.168    -598.464     125.495   746754   748523   748523          746754          748523          748523 0.901213  3051.79    -0.00240938
  0.054     9865.37    -605.187    -598.212      125.99   746593   748523   748523          746593          748523          748523 0.903801  3051.78    -0.00217903
  0.056     9465.45    -605.205     -597.96      126.56   746452   748523   748523          746452          748523          748523 0.902173  3051.77    -0.00196856
  0.058     9093.11    -605.224    -597.706     127.222   746313   748523   748523          746313          748523          748523 0.897989  3051.75    -0.00178424
   0.06      8745.6    -605.244    -597.451     127.995   746100   748523   748523          746100          748523          748523 0.898722  3051.74    -0.00163289
  0.062     8420.53    -605.264    -597.194     128.904   745856   748523   748523          745856          748523          748523 0.90114  3051.73    -0.00152214
  0.064     8115.78    -605.284    -596.935     129.979   745624   748523   748523          745624          748523          748523 0.899134  3051.72    -0.00146083
  0.066     7829.51    -605.305    -596.674     131.258   745277   748523   748523          745277          748523          748523 0.903472  3051.72    -0.00145964
  0.068     7560.08    -605.327     -596.41     132.791   744923   748523   748523          744923          748523          748523 0.904721  3051.71    -0.00153198
   0.07     7306.07     -605.35    -596.143     134.642   744446   748523   748523          744446          748523          748523 0.910391   3051.7    -0.00169501
  0.072     7066.18    -605.373    -595.871     136.896   744023   748523   748523          744023          748523          748523 0.910567  3051.69    -0.00197083
  0.074     6839.27    -605.398    -595.595     139.667   743466   748523   748523          743466          748523          748523 0.91345  3051.67    -0.00238777
  0.076     6624.31    -605.423    -595.312     143.109   742915   748523   748523          742915          748523          748523 0.911448  3051.66    -0.00298152
  0.078     6420.39     -605.45    -595.022     147.427   741955   748523   748523          741955          748523          748523 0.92141  3051.64    -0.00379598
   0.08     6226.69    -605.478    -594.722     152.894   740932   748523   748523          740932          748523          748523 0.929338  3051.61    -0.00488337
  0.082     6042.46    -605.508    -594.409     159.863   739974   748523   748523          739974          748523          748523 0.929243  3051.58    -0.00630291
  0.084     5867.02     -605.54    -594.081     168.778   738474   748523   748523          738474          748523          748523 0.934689  3051.53    -0.00811692
  0.086     5699.77    -605.574    -593.732     180.162   736470   748436   748523          736470          748436          748523 0.942944  3051.48     -0.0103822
  0.088     5540.15    -605.611    -593.358     194.563   734252   748436   748523          734252          748436          748523 0.95155   3051.4     -0.0131336
   0.09     5387.67    -605.651    -592.952      212.42   731514   746602   748523          731514          746602          748523 0.960761  3051.31     -0.0163553
  0.092     5241.86    -605.695    -592.506     233.818   728488   746572   748523          728488          746572          748523 0.967128   3051.2     -0.0199394
  0.094     5102.31    -605.745    -592.015     258.146   724979   744193   748523          724979          744193          748523 0.975542  3051.07     -0.0236399
  0.096     4968.63      -605.8    -591.473     283.814   721505   741204   748523          721505          741204          748523 0.980995  3050.92     -0.0270514
  0.098     4840.48    -605.862     -590.88     308.344   718743   741204   748523          718743          741204          748523 0.983324  3050.74     -0.0296602
    0.1     4717.53    -605.932    -590.242     329.103   715936   734784   748523          715936          734784          748523 0.983901  3050.56     -0.0309935
  0.102     4599.49     -606.01    -589.567     344.483   713176   731707   748523          713176          731707          748523 0.984387  3050.37     -0.0308103
  0.104     4486.07    -606.097    -588.867     354.733   710678   726471   748523          710678          726471          748523 0.982007  3050.18     -0.0292077
  0.106     4377.01    -606.193    -588.151     361.729   707583   726471   745998          707583          726471          745998 0.973505  3050.01     -0.0265577
  0.108     4272.08    -606.298    -587.421     367.804   704870   721069   742728          704870          721069          742728 0.965704  3049.86     -0.0233308
   0.11     4171.05    -606.412    -586.679     374.498   702636   720897   739539          702636          720897          739539 0.958513  3049.73       -0.01994
  0.112      4073.7    -606.535    -585.923     381.982   699313   720711   737041          699313          720711          737041 0.962084  3049.62     -0.0166751
  0.114     3979.86    -606.668    -585.151      389.35   696267   720711   735383          696267          720711          735383 0.967438  3049.52     -0.0137104
  0.116     3889.33     -606.81    -584.366      395.48   693545   713998   732794          693545          713998          732794 0.967096  3049.45     -0.0111286
  0.118     3801.96    -606.962     -583.57     399.905   690799   707157   730177          690799          707157          730177 0.966583  3049.39    -0.00892811
   0.12     3717.57    -607.123    -582.767     403.185   688668   707157   727729          688668          707157          727729 0.963082  3049.34    -0.00701419
  0.122     3636.03    -607.294    -581.957     406.609   685854   704243   725178          685854          704243          725178 0.961105   3049.3     -0.0051942
  0.124     3557.19    -607.474     -581.14     411.489   682571   704200   722797          682571          704200          722797 0.962956  3049.28    -0.00319663
  0.126     3480.94    -607.663     -580.31     418.425   679252   699422   721082          679252          699422          721082 0.966633  3049.26   -0.000726316
  0.128     3407.14    -607.862    -579.465     426.848   675794   696977   718010          675794          696977          718010 0.966691  3049.27     0.00244204
   0.13     3335.68    -608.071    -578.603     435.009   672892   695604   715633          672892          695604          715633 0.968833   3049.3     0.00635255
  0.132     3266.46    -608.289    -577.727     440.471   670495   693592   713333          670495          693592          713333 0.970465  3049.35      0.0107918
  0.134     3199.38    -608.517    -576.844     441.017   667806   689981   710517          667806          689981          710517 0.972437  3049.43      0.0153128
  0.136     3134.35    -608.754    -575.967     435.583   665950   682688   708317          665950          682688          708317 0.973409  3049.53      0.0193799
  0.138     3071.26    -609.001    -575.106     424.713   664463   682688   705758          664463          682688          705758 0.970627  3049.66       0.022568
   0.14     3010.04    -609.257     -574.27     410.302   662620   677177   702860          662620          677177          702860 0.96762  3049.81      0.0247031
  0.142     2950.61     -609.52    -573.465     394.853   661200   676813   700155          661200          676813          700155 0.963649  3049.96      0.0258773
  0.144     2892.88    -609.792     -572.69     380.705   658839   676206   697467          658839          676206          697467 0.963377  3050.12      0.0263612
  0.146     2836.78    -610.071     -571.94     369.572   656935   672601   694509          656935          672601          694509 0.959959  3050.28      0.0264877
  0.148     2782.24    -610.357    -571.209     362.409   655755   671595   692054          655755          671595          692054 0.955511  3050.44      0.0265638
   0.15      2729.2    -610.649    -570.488       359.5   653767   671595   689992          653767          671595          689992 0.956197  3050.61      0.0268273
  0.152      2677.6    -610.947    -569.768     360.615   651552   668372   687807          651552          668372          687807 0.957665  3050.77      0.0274376
  0.154     2627.38    -611.252    -569.043     365.167   649536   668372   685750          649536          668372          685750 0.957322  3050.94      0.0284844
  0.156     2578.49    -611.564    -568.306     372.347   647670   667176   684179          647670          667176          684179 0.958171  3051.12      0.0300018
  0.158     2530.88    -611.882    -567.552     381.262   644995   667176   682828          644995          667176          682828 0.963126  3051.31      0.0319828
   0.16      2484.5    -612.206     -566.78     391.056   642465   667176   681215          642465          667176          681215 0.965974  3051.51      0.0343924
  0.162     2439.31    -612.537    -565.988     401.019   640717   658858   679775          640717          658858          679775 0.965303  3051.73      0.0371781
  0.164     2395.26    -612.876    -565.176     410.651   638775   656959   678018          638775          656959          678018 0.96348  3051.97      0.0402759
  0.166     2352.31    -613.221    -564.346      419.66   636329   656957   676607          636329          656957          676607 0.964395  3052.22      0.0436102
  0.168     2310.43    -613.573    -563.498      427.89   633440   656722   674950          633440          656722          674950 0.966698   3052.5       0.047088
   0.17     2269.58    -613.933    -562.635     435.214   630753   652520   673424          630753          652520          673424 0.970165   3052.8      0.0505903
  0.172     2229.73      -614.3    -561.758     441.435   628853   652520   672023          628853          652520          672023 0.970685  3053.12      0.0539675
  0.174     2190.83    -614.675     -560.87     446.245   626890   648556   670095          626890          648556          670095 0.969582  3053.46      0.0570455
  0.176     2152.86    -615.057    -559.974     449.268   624991   645028   668536          624991          645028          668536 0.969827  3053.81      0.0596456
  0.178     2115.78    -615.447    -559.075     450.154   622705   645028   666198          622705          645028          666198 0.968412  3054.18      0.0616152
   0.18     2079.57    -615.844    -558.175     448.704   620351   642740   664117          620351          642740          664117 0.970323  3054.56      0.0628588
  0.182     2044.19    -616.248    -557.281     444.959   618444   639783   662033          618444          639783          662033 0.97143  3054.95        0.06336
  0.184     2009.63     -616.66    -556.397     439.216   616896   633926   659736          616896          633926          659736 0.970596  3055.34      0.0631847
  0.186     1975.84    -617.078    -555.525     431.982   615608   631792   657844          615608          631792          657844 0.97017  3055.72      0.0624666
  0.188     1942.81    -617.504    -554.669     423.882   614638   631792   655330          614638          631792          655330 0.965192   3056.1      0.0613812
   0.19      1910.5    -617.935     -553.83     415.561   613850   631792   653568          613850          631792          653568 0.962382  3056.47      0.0601176
  0.192     1878.91    -618.373    -553.007     407.613   612516   630940   651662          612516          630940          651662 0.960288  3056.83      0.0588554
  0.194     1847.99    -618.817    -552.199      400.54   610730   630940   649838          610730          630940          649838 0.960623  3057.19      0.0577492
  0.196     1817.74    -619.267    -551.404      394.73   608837   627905   648180          608837          627905          648180 0.961302  3057.54      0.0569205
  0.198     1788.12    -619.722    -550.619     390.459   606305   625267   646459          606305          625267          646459 0.96601  3057.89      0.0564549
    0.2     1759.13    -620.183    -549.841     387.888   605117   622102   644579          605117          622102          644579 0.963516  3058.23      0.0564004
  0.202     1730.73    -620.649    -549.066     387.063   603835   620467   642564          603835          620467          642564 0.960244  3058.58      0.0567676
  0.204     1702.92     -621.12    -548.292     387.907   601974   619141   640396          601974          619141          640396 0.959673  3058.93      0.0575297
  0.206     1675.67    -621.597    -547.514     390.221   600949   619141   638463          600949          619141          638463 0.955495  3059.28      0.0586243
  0.208     1648.97    -622.079     -546.73     393.695   599080   619141   637366          599080          619141          637366 0.959598  3059.65      0.0599578
   0.21     1622.81    -622.566    -545.938     397.929   597278   619141   635872          597278          619141          635872 0.961153  3060.02      0.0614133
  0.212     1597.17    -623.058    -545.138     402.475   595719   617023   634856          595719          617023          634856 0.963904   3060.4      0.0628631
  0.214     1572.02    -623.556    -544.329     406.894   594245   615654   633752          594245          615654          633752 0.965208  3060.79       0.064184
  0.216     1547.37    -624.059    -543.511     410.813   592694   615653   632591          592694          615653          632591 0.966494  3061.18       0.065273
  0.218      1523.2    -624.568    -542.686     413.977   591203   615653   631794          591203          615653          631794 0.968553  3061.58      0.0660608
   0.22     1499.49    -625.081    -541.855      416.28   589755   607687   629941          589755          607687          629941 0.965389  3061.99      0.0665196
  0.222     1476.23    -625.601    -541.021     417.763   588613   607687   628374          588613          607687          628374 0.96222   3062.4      0.0666628
  0.224     1453.41    -626.125    -540.185     418.589   586594   607531   627037          586594          607531          627037 0.964111  3062.81      0.0665383
  0.226     1431.02    -626.655    -539.347     418.995   585454   602558   625484          585454          602558          625484 0.961124  3063.21      0.0662149
  0.228     1409.05    -627.191    -538.509     419.227   583032   602558   623862          583032          602558          623862 0.964271  3063.62      0.0657671
   0.23     1387.48    -627.731     -537.67     419.493   581458   602558   622731          581458          602558          622731 0.966372  3064.02      0.0652605
  0.232      1366.3    -628.277    -536.831     419.914   580346   602558   621666          580346          602558          621666 0.96607  3064.42      0.0647404
  0.234     1345.51    -628.828     -535.99     420.508   578462   597386   620534          578462          597386          620534 0.969124  3064.81      0.0642259
  0.236     1325.09    -629.384    -535.149      421.19   577187   597386   619209          577187          597386          619209 0.968872  3065.21      0.0637092
  0.238     1305.04    -629.945    -534.306     421.794   576058   597386   617597          576058          597386          617597 0.966751  3065.59        0.06316
   0.24     1285.34    -630.511    -533.462     422.109   574487   595759   616413          574487          595759          616413 0.968764  3065.98       0.062533
  0.242     1265.99    -631.082    -532.618     421.923   573498   594546   614662          573498          594546          614662 0.966024  3066.36      0.0617786
  0.244     1246.98    -631.659    -531.775     421.064   571905   594546   612630          571905          594546          612630 0.965504  3066.74      0.0608521
  0.246     1228.29     -632.24    -530.934     419.433   570448   591880   611488          570448          591880          611488 0.968119  3067.11      0.0597226
  0.248     1209.93    -632.826    -530.097     417.019   568929   591880   610047          568929          591880          610047 0.969809  3067.47      0.0583781
   0.25     1191.88    -633.417    -529.266      413.91   568031   582655   608685          568031          582655          608685 0.969304  3067.82      0.0568274
  0.252     1174.13    -634.012    -528.442     410.271   567397   582229   607781          567397          582229          607781 0.968813  3068.17      0.0550985
  0.254     1156.69    -634.612    -527.625     406.328   566769   582229   606090          566769          582229          606090 0.963899   3068.5      0.0532341
  0.256     1139.53    -635.217    -526.817     402.335   565705   582229   604333          565705          582229          604333 0.960566  3068.82      0.0512859
  0.258     1122.65    -635.826    -526.016      398.55   564721   582229   603300          564721          582229          603300 0.960053  3069.13      0.0493086
   0.26     1106.06     -636.44    -525.222     395.209   563059   582229   602225          563059          582229          602225 0.962355  3069.42      0.0473545
  0.262     1089.73    -637.057    -524.435     392.508   561869   581799   600531          561869          581799          600531 0.959827  3069.71      0.0454694
  0.264     1073.66    -637.679    -523.652     390.595   559933   578538   599587          559933          578538          599587 0.964533  3069.98      0.0436902
  0.266     1057.85    -638.305    -522.872      389.56   558825   578538   598247          558825          578538          598247 0.963701  3070.25      0.0420437
  0.268      1042.3    -638.935    -522.093     389.439   558022   577296   597350          558022          577296          597350 0.963386   3070.5      0.0405464
   0.27     1026.99    -639.569    -521.313     390.217   556874   577296   596013          556874          577296          596013 0.962355  3070.74      0.0392053
  0.272     1011.91    -640.207    -520.531     391.828   555860   574821   594771          555860          574821          594771 0.960858  3070.98      0.0380192
  0.274     997.076    -640.849    -519.746     394.166   555085   574596   593421          555085          574596          593421 0.957253  3071.21      0.0369796
  0.276     982.468    -641.495    -518.954     397.091   552742   574596   592292          552742          574596          592292 0.962276  3071.44      0.0360723
  0.278     968.085    -642.145    -518.157     400.431   551304   569959   590915          551304          569959          590915 0.962716  3071.66      0.0352785
   0.28     953.922    -642.799    -517.353     404.001   550032   569959   589859          550032          569959          589859 0.963996  3071.87      0.0345756
  0.282     939.974    -643.457    -516.541     407.601   548937   569662   588539          548937          569662          588539 0.963093  3072.08      0.0339384
  0.284     926.237    -644.119    -515.722     411.036   547521   568519   587776          547521          568519          587776 0.966456  3072.29      0.0333401
  0.286     912.706    -644.785    -514.897     414.121   546650   568246   586711          546650          568246          586711 0.965833  3072.49      0.0327528
  0.288     899.377    -645.455    -514.066     416.692   545240   568246   585898          545240          568246          585898 0.968504  3072.69      0.0321492
   0.29     886.247     -646.13    -513.231     418.622   544014   567764   584979          544014          567764          584979 0.970197  3072.89      0.0315028
  0.292      873.31    -646.809    -512.392     419.821   543056   559962   584117          543056          559962          584117 0.970674  3073.08      0.0307895
  0.294     860.564    -647.491    -511.552     420.251   542223   559962   583115          542223          559962          583115 0.969967  3073.26      0.0299881
  0.296     848.003    -648.178    -510.712     419.921   541310   559962   582246          541310          559962          582246 0.969991  3073.45      0.0290811
  0.298     835.625    -648.869    -509.873     418.891   540502   559962   580929          540502          559962          580929 0.96761  3073.62      0.0280548
    0.3     823.425    -649.564    -509.036     417.266   539713   559962   579906          539713          559962          579906 0.96638  3073.79      0.0268995
  0.302       811.4    -650.263    -508.204      415.19   538573   559962   578979          538573          559962          578979 0.967113  3073.95       0.025609
  0.304     799.546    -650.965    -507.376     412.838   537421   558724   578081          537421          558724          578081 0.967792   3074.1      0.0241796
  0.306     787.859    -651.672    -506.553     410.406   536771   551518   576829          536771          551518          576829 0.964685  3074.25      0.0226085
  0.308     776.337    -652.382    -505.734     408.101   535724   551518   575530          535724          551518          575530 0.962977  3074.38       0.020893
   0.31     764.975    -653.096     -504.92     406.132   534825   551518   574598          534825          551518          574598 0.961979  3074.51      0.0190277
  0.312     753.771    -653.814    -504.109     404.706   533539   551518   572930          533539          551518          572930 0.95984  3074.62       0.017003
  0.314     742.721    -654.536    -503.301     404.019   532547   551518   572178          532547          551518          572178 0.960355  3074.71       0.014802
  0.316     731.822    -655.261    -502.493     404.255   531517   548030   570851          531517          548030          570851 0.957987   3074.8      0.0123978
  0.318     721.072    -655.989    -501.683     405.586   530228   548030   569998          530228          548030          569998 0.959092  3074.87     0.00974978
   0.32     710.468    -656.722    -500.869     408.172   529234   548030   568855          529234          548030          568855 0.957136  3074.92     0.00679903
  0.322     700.006    -657.458    -500.049     412.165   527769   547933   567803          527769          547933          567803 0.957484  3074.95     0.00346229
  0.324     689.685    -658.197     -499.22     417.718   526882   547933   566052          526882          547933          566052 0.952127  3074.96   -0.000376075
  0.326     679.502     -658.94    -498.377     424.995   525600   544866   565099          525600          544866          565099 0.952195  3074.94    -0.00487501
  0.328     669.454    -659.687    -497.518     434.188   523908   544866   564181          523908          544866          564181 0.953891   3074.9     -0.0102519
   0.33      659.54    -660.438    -496.639     445.538   522187   544866   563438          522187          544866          563438 0.956315  3074.81     -0.0168035
  0.332     649.757    -661.193    -495.735     459.367   520833   544866   562602          520833          544866          562602 0.956314  3074.69     -0.0249349
  0.334     640.103    -661.952      -494.8     476.123   519367   544866   561495          519367          544866          561495 0.954764   3074.5     -0.0351999
  0.336     630.577    -662.715    -493.828     496.434   517579   544866   560936          517579          544866          560936 0.95637  3074.25     -0.0483553
  0.338     621.177    -663.482    -492.811     521.176   516194   541323   560535          516194          541323          560535 0.955509   3073.9     -0.0654335
   0.34     611.902    -664.255    -491.739     551.559   514853   541323   559857          514853          541323          559857 0.951213  3073.43     -0.0878344
  0.342      602.75    -665.032      -490.6     589.211   510881   538913   558894          510881          538913          558894 0.955349  3072.81      -0.117433
  0.344     593.721    -665.815    -489.376     636.245   508331   538913   557816          508331          538913          557816 0.952248  3071.97      -0.156685
  0.346     584.813    -666.604    -488.047     695.245   505119   533931   556715          505119          533931          556715 0.94954  3070.85      -0.208684
  0.348     576.026    -667.399    -486.585     769.097   501327   533931   555509          501327          533931          555509 0.947347  3069.37      -0.277089
   0.35     567.362    -668.202    -484.959     860.494   495668   529620   554520          495668          529620          554520 0.95055  3067.41       -0.36575
  0.352      558.82    -669.014    -483.131     970.959   490443   529620   553716          490443          529620          553716 0.952229  3064.84      -0.477839
  0.354     550.402    -669.835    -481.063     1099.28   482776   529620   552943          482776          529620          552943 0.959738   3061.5      -0.614285
  0.356      542.11    -670.667    -478.725     1239.56   475238   529620   552116          475238          529620          552116 0.970164  3057.27      -0.771577
  0.358     533.945    -671.512    -476.105      1379.7   469201   521844   551165          469201          521844          551165 0.976981  3052.05      -0.939615
   0.36      525.91    -672.371    -473.219     1501.74   465057   521844   550021          465057          521844          550021 0.98101  3045.82       -1.10109
  0.362     518.006    -673.245    -470.123     1585.49   461637   521844   548760          461637          521844          548760 0.984276  3038.69        -1.2341
  0.364     510.234    -674.136    -466.913     1614.92   458752   521367   547858          458752          521367          547858 0.987184  3030.92       -1.31837
  0.366     502.591    -675.043    -463.704     1584.55   457197   476819   545167          457197          476819          545167 0.985461  3022.83       -1.34249
  0.368     495.075    -675.965     -460.61     1501.57   456387   476819   540931          456387          476819          540931 0.979806   3014.8       -1.30799
   0.37      487.68    -676.903    -457.722     1382.55   454853   476819   535732          454853          476819          535732 0.974833  3007.15       -1.22773
  0.372     480.401    -677.854    -455.091     1246.92   454326   476818   530989          454326          476818          530989 0.968786  3000.09          -1.12
  0.374     473.233    -678.818    -452.734     1111.22   452913   476818   525061          452913          476818          525061 0.962592  2993.73       -1.00234
  0.376     466.169    -679.792    -450.639     986.396   451778   476818   518513          451778          476818          518513 0.955391  2988.08      -0.887773
  0.378     459.205    -680.775    -448.777     877.827   450951   469912   511634          450951          469912          511634 0.949644  2983.09      -0.783959
   0.38     452.335    -681.766    -447.116     786.796   450107   469912   505796          450107          469912          505796 0.945879   2978.7      -0.694139
  0.382     445.555    -682.765    -445.619     712.191   449434   469912   502766          449434          469912          502766 0.949126  2974.79      -0.618649
  0.384     438.862    -683.769    -444.257      651.82   448586   466886   498456          448586          466886          498456 0.946662  2971.31       -0.55626
  0.386     432.253     -684.78    -443.004     603.225   447991   466127   496904          447991          466127          496904 0.951904  2968.16      -0.505112
  0.388     425.725    -685.795    -441.838     564.113   447374   466127   494115          447374          466127          494115 0.950577  2965.29      -0.463242
   0.39     419.275    -686.814    -440.743     532.518   446652   466127   492110          446652          466127          492110 0.952043  2962.65      -0.428857
  0.392     412.902    -687.838    -439.704     506.839   445632   464059   489407          445632          464059          489407 0.950855   2960.2      -0.400425
  0.394     406.604    -688.866    -438.712     485.803   445034   464059   487585          445034          464059          487585 0.951652   2957.9      -0.376696
  0.396     400.379    -689.898    -437.759     468.416   444439   462486   486622          444439          462486          486622 0.955074  2955.73       -0.35667
  0.398     394.225    -690.933    -436.837     453.907   443911   462486   485287          443911          462486          485287 0.955453  2953.68      -0.339559
    0.4     388.142    -691.972    -435.941     441.676   443196   462486   483950          443196          462486          483950 0.956387  2951.72      -0.324748
  0.402     382.126    -693.013    -435.069     431.259   442657   462486   482980          442657          462486          482980 0.957511  2949.84      -0.311758
  0.404     376.178    -694.058    -434.215     422.293   442067   462486   481901          442067          462486          481901 0.957785  2948.04      -0.300218
  0.406     370.296    -695.106    -433.379     414.494   440996   462486   481173          440996          462486          481173 0.961398   2946.3      -0.289839
  0.408     364.479    -696.157    -432.557      407.64   440408   455398   480223          440408          455398          480223 0.961586  2944.62        -0.2804
   0.41     358.725     -697.21    -431.748     401.553   439356   455398   479021          439356          455398          479021 0.96274  2942.99      -0.271729
  0.412     353.034    -698.267     -430.95     396.092   438796   455398   478053          438796          455398          478053 0.96267  2941.42      -0.263691
  0.414     347.405    -699.326    -430.163     391.144   438099   455398   477335          438099          455398          477335 0.964169  2939.89      -0.256184
  0.416     341.836    -700.387    -429.385     386.618   437288   455398   476689          437288          455398          476689 0.966292   2938.4      -0.249129
  0.418     336.326    -701.451    -428.616     382.439   436645   455330   475520          436645          455330          475520 0.965487  2936.96      -0.242463
   0.42     330.874    -702.518    -427.855     378.547   436074   455330   474325          436074          455330          474325 0.96452  2935.56      -0.236138
  0.422     325.481    -703.587    -427.102     374.891   435578   451501   473396          435578          451501          473396 0.964356  2934.19      -0.230115
  0.424     320.143    -704.659    -426.356     371.428   435051   451501   472438          435051          451501          472438 0.964119  2932.85      -0.224362
  0.426     314.862    -705.733    -425.616     368.122   434489   451501   471664          434489          451501          471664 0.965052  2931.55      -0.218854
  0.428     309.635    -706.809    -424.883     364.942   434074   451501   471183          434074          451501          471183 0.966525  2930.29      -0.213567
   0.43     304.462    -707.888    -424.156     361.861   433686   451501   470482          433686          451501          470482 0.966514  2929.05      -0.208481
  0.432     299.343    -708.968    -423.436     358.856   433157   451501   469958          433157          451501          469958 0.968052  2927.84      -0.203578
  0.434     294.275    -710.051    -422.721     355.907   432749   449938   469298          432749          449938          469298 0.968218  2926.67      -0.198841
  0.436     289.259    -711.137    -422.012     352.996   432443   448871   468584          432443          448871          468584 0.967549  2925.52      -0.194252
  0.438     284.294    -712.224    -421.309     350.107   432138   448871   467875          432138          448871          467875 0.966786  2924.39      -0.189796
   0.44     279.379    -713.313    -420.612      347.23   431749   448871   467315          431749          448871          467315 0.967079   2923.3      -0.185458
  0.442     274.513    -714.405     -419.92     344.354   431257   448871   466756          431257          448871          466756 0.967785  2922.22      -0.181223
  0.444     269.695    -715.498    -419.234     341.471   430967   445360   466170          430967          445360          466170 0.967239  2921.18      -0.177078
  0.446     264.925    -716.594    -418.554     338.576   430456   445358   465457          430456          445358          465457 0.967102  2920.15       -0.17301
  0.448     260.202    -717.691     -417.88     335.667   430019   445358   464747          430019          445358          464747 0.966711  2919.16      -0.169007
   0.45     255.525    -718.791    -417.211     332.744   429602   445358   464203          429602          445358          464203 0.967045  2918.18      -0.165059
  0.452     250.894    -719.892    -416.549     329.809   429235   445358   463400          429235          445358          463400 0.965778  2917.23      -0.161158
  0.454     246.307    -720.995    -415.892     326.864   428713   445358   462873          428713          445358          462873 0.966751   2916.3      -0.157296
  0.456     241.765      -722.1    -415.241     323.917   428082   445358   462516          428082          445358          462516 0.969172  2915.39      -0.153467
  0.458     237.267    -723.207    -414.596     320.973   427581   445167   461717          427581          445167          461717 0.96874  2914.51      -0.149666
   0.46     232.811    -724.315    -413.957     318.042   427216   445167   461184          427216          445167          461184 0.969094  2913.65       -0.14589
  0.462     228.398    -725.426    -413.324     315.133   426908   439638   460056          426908          439638          460056 0.966333  2912.81      -0.142138
  0.464     224.026    -726.538    -412.697     312.255   426617   439385   459775          426617          439385          459775 0.967567  2911.99      -0.138407
  0.466     219.695    -727.651    -412.075      309.42   426333   439385   459133          426333          439385          459133 0.966753   2911.2      -0.134699
  0.468     215.405    -728.766    -411.459     306.638   426114   437018   458428          426114          437018          458428 0.965215  2910.42      -0.131014
   0.47     211.155    -729.883    -410.849      303.92   425801   436806   457869          425801          436806          457869 0.964856  2909.67      -0.127353
  0.472     206.944    -731.002    -410.243     301.275   425600   436806   457047          425600          436806          457047 0.962416  2908.94      -0.123719
  0.474     202.772    -732.121    -409.644     298.713   425386   436806   456390          425386          436806          456390 0.960824  2908.23      -0.120114
  0.476     198.638    -733.243    -409.049     296.243   425115   436806   455968          425115          436806          455968 0.960846  2907.55      -0.116541
  0.478     194.542    -734.366    -408.458     293.873   424840   436806   455570          424840          436806          455570 0.960859  2906.88      -0.113002
   0.48     190.483     -735.49    -407.873     291.609   424602   436806   455049          424602          436806          455049 0.959686  2906.23        -0.1095
  0.482     186.461    -736.616    -407.292     289.458   424203   436806   454191          424203          436806          454191 0.957481  2905.61      -0.106037
  0.484     182.475    -737.743    -406.715     287.423   423812   436806   453780          423812          436806          453780 0.95818     2905      -0.102615
  0.486     178.524    -738.872    -406.142     285.509   423608   436806   453305          423608          436806          453305 0.95711  2904.41      -0.099236
  0.488     174.609    -740.002    -405.573     283.717   422841   436806   453007          422841          436806          453007 0.9608  2903.85     -0.0959017
   0.49     170.728    -741.133    -405.007     282.049   422627   434795   452562          422627          434795          452562 0.960015   2903.3     -0.0926131
  0.492     166.882    -742.265    -404.445     280.505   422395   434795   452179          422395          434795          452179 0.959581  2902.77     -0.0893711
  0.494     163.069    -743.399    -403.885     279.083   422065   434795   451692          422065          434795          451692 0.959054  2902.26     -0.0861758
  0.496      159.29    -744.535    -403.328     277.783   421482   434795   451138          421482          434795          451138 0.959846  2901.77     -0.0830275
  0.498     155.544    -745.671    -402.774     276.601   421176   434795   450635          421176          434795          450635 0.959266   2901.3     -0.0799257
    0.5      151.83    -746.809    -402.222     275.533   421001   434795   450272          421001          434795          450272 0.958702  2900.84     -0.0768699
  0.502     148.148    -747.948    -401.672     274.576   420702   434795   449957          420702          434795          449957 0.959162   2900.4      -0.073859
  0.504     144.498    -749.088    -401.123     273.724   420447   434795   449585          420447          434795          449585 0.958847  2899.99      -0.070892
  0.506     140.879    -750.229    -400.577     272.972   420264   434795   449133          420264          434795          449133 0.957445  2899.58     -0.0679675
  0.508     137.291    -751.372    -400.031     272.313   419775   434795   448776          419775          434795          448776 0.958596   2899.2     -0.0650839
   0.51     133.733    -752.516    -399.487     271.743   419320   434795   448385          419320          434795          448385 0.959327  2898.83     -0.0622396
  0.512     130.206    -753.661    -398.944     271.253   418532   433381   447958          418532          433381          447958 0.962109  2898.47     -0.0594329
  0.514     126.708    -754.807    -398.402     270.838   418164   433381   447447          418164          433381          447447 0.962007  2898.14     -0.0566619
  0.516      123.24    -755.954    -397.861      270.49   417929   433381   447120          417929          433381          447120 0.962176  2897.82      -0.053925
  0.518     119.801    -757.103     -397.32     270.203   417679   433381   446781          417679          433381          446781 0.962223  2897.51     -0.0512203
   0.52      116.39    -758.253     -396.78     269.968   417383   433381   446522          417383          433381          446522 0.963005  2897.22     -0.0485462
  0.522     113.008    -759.403     -396.24     269.781   417019   433381   446180          417019          433381          446180 0.963665  2896.95     -0.0459011
  0.524     109.654    -760.555    -395.701     269.632   416607   432629   445982          416607          432629          445982 0.965445  2896.69     -0.0432835
  0.526     106.328    -761.709    -395.162     269.517   416413   432629   445706          416413          432629          445706 0.965351  2896.45      -0.040692
  0.528     103.028    -762.863    -394.623     269.428   416059   432629   445464          416059          432629          445464 0.966351  2896.22     -0.0381254
   0.53     99.7563    -764.018    -394.084     269.359   415881   428275   445167          415881          428275          445167 0.96591  2896.01     -0.0355828
  0.532     96.5109    -765.175    -393.546     269.305   415461   428275   444549          415461          428275          444549 0.965004  2895.81     -0.0330631
  0.534     93.2919    -766.333    -393.007     269.259   415186   428273   444131          415186          428273          444131 0.96454  2895.62     -0.0305657
  0.536     90.0991    -767.491    -392.468     269.217   414969   427453   443616          414969          427453          443616 0.96314  2895.45       -0.02809
  0.538      86.932    -768.651     -391.93     269.174   414796   427336   443368          414796          427336          443368 0.963051   2895.3     -0.0256356
   0.54     83.7905    -769.812    -391.392     269.126   414474   427336   442965          414474          427336          442965 0.962826  2895.16     -0.0232023
  0.542     80.6741    -770.974    -390.854     269.068   414125   427336   442515          414125          427336          442515 0.962506  2895.03     -0.0207901
  0.544     77.5827    -772.138    -390.316     268.997   413864   427336   442094          413864          427336          442094 0.961901  2894.92     -0.0183988
  0.546      74.516    -773.302    -389.778     268.909   413495   427336   441748          413495          427336          441748 0.962511  2894.82     -0.0160288
  0.548     71.4736    -774.467     -389.24     268.803   413101   427336   441544          413101          427336          441544 0.96412  2894.73     -0.0136803
   0.55     68.4554    -775.634    -388.702     268.675   412810   427336   441341          412810          427336          441341 0.965039  2894.66     -0.0113535
  0.552      65.461    -776.801    -388.165     268.524   412465   427336   441121          412465          427336          441121 0.966194   2894.6    -0.00904902
  0.554     62.4901     -777.97    -387.628     268.349   412186   427336   440782          412186          427336          440782 0.966178  2894.55    -0.00676721
  0.556     59.5425     -779.14    -387.092     268.147   411896   427336   440433          411896          427336          440433 0.966223  2894.52    -0.00450857
  0.558      56.618     -780.31    -386.556     267.919   411642   427336   440208          411642          427336          440208 0.966771   2894.5    -0.00227361
   0.56     53.7163    -781.482     -386.02     267.664   411273   427336   440043          411273          427336          440043 0.968386  2894.49    -6.2807e-05
  0.562     50.8371    -782.655    -385.485     267.382   411057   427336   439897          411057          427336          439897 0.969096   2894.5     0.00212338
  0.564     47.9801    -783.829    -384.951     267.073   410770   423002   439719          410770          423002          439719 0.969946  2894.52     0.00428453
  0.566     45.1452    -785.004    -384.417     266.738   410549   423002   439428          410549          423002          439428 0.969732  2894.55     0.00642029
  0.568     42.3321     -786.18    -383.884     266.378   410380   423002   439094          410380          423002          439094 0.96892  2894.59     0.00853037
   0.57     39.5406    -787.357    -383.351     265.993   410280   423002   438864          410280          423002          438864 0.968235  2894.65      0.0106145
  0.572     36.7703    -788.535     -382.82     265.585   410140   423002   438469          410140          423002          438469 0.966707  2894.72      0.0126727
  0.574     34.0211    -789.714    -382.289     265.155   409676   423002   438260          409676          423002          438260 0.968376   2894.8      0.0147048
  0.576     31.2928    -790.894    -381.759     264.704   409526   421499   437915          409526          421499          437915 0.967272  2894.89       0.016711
  0.578     28.5851    -792.075     -381.23     264.235   409366   421499   437649          409366          421499          437649 0.966667  2894.99      0.0186913
   0.58     25.8978    -793.258    -380.702     263.749   409048   421499   437457          409048          421499          437457 0.967488   2895.1      0.0206461
  0.582     23.2307    -794.441    -380.175     263.247   408870   421499   437195          408870          421499          437195 0.966939  2895.23      0.0225757
  0.584     20.5835    -795.625    -379.649     262.732   408545   421499   437011          408545          421499          437011 0.967797  2895.36      0.0244807
  0.586     17.9561     -796.81    -379.124     262.206   408342   421499   436746          408342          421499          436746 0.967371  2895.51      0.0263615
  0.588     15.3481    -797.996      -378.6      261.67   408095   421499   436411          408095          421499          436411 0.966786  2895.67      0.0282189
   0.59     12.7595    -799.183    -378.078     261.126   407821   421499   436159          407821          421499          436159 0.966907  2895.84      0.0300535
  0.592       10.19    -800.371    -377.556     260.576   407554   418378   435836          407554          418378          435836 0.966586  2896.02      0.0318662
  0.594     7.63945     -801.56    -377.035     260.022   406970   418378   435383          406970          418378          435383 0.967531  2896.21      0.0336577
  0.596     5.10755     -802.75    -376.516     259.466   406749   418378   435172          406749          418378          435172 0.967912  2896.41      0.0354291
  0.598     2.59416     -803.94    -375.997      258.91   406543   418378   434964          406543          418378          434964 0.968185  2896.62      0.0371813
    0.6   0.0990699    -805.132     -375.48     258.354   406375   418378   434662          406375          418378          434662 0.967533  2896.84      0.0389152
  0.602    -2.37791    -806.325    -374.964     257.801   406276   418378   434335          406276          418378          434335 0.966247  2897.07      0.0406319
  0.604    -4.83697    -807.518    -374.449     257.252   406177   418378   434026          406177          418378          434026 0.965024  2897.31      0.0423324
  0.606    -7.27829    -808.713    -373.935     256.709   405930   418378   433648          405930          418378          433648 0.964369  2897.56      0.0440176
  0.608    -9.70207    -809.908    -373.422     256.172   405822   418104   433458          405822          418104          433458 0.964001  2897.82      0.0456886
   0.61    -12.1085    -811.104     -372.91     255.643   405489   418104   433109          405489          418104          433109 0.964065  2898.09      0.0473464
  0.612    -14.4977    -812.301      -372.4     255.123   405415   418104   432828          405415          418104          432828 0.962847  2898.37       0.048992
  0.614      -16.87    -813.499     -371.89     254.613   405153   418104   432335          405153          418104          432335 0.96146  2898.66      0.0506261
  0.616    -19.2254    -814.698    -371.381     254.115   404938   418104   432021          404938          418104          432021 0.961064  2898.96      0.0522499
  0.618    -21.5641    -815.898    -370.873     253.627   404701   418104   431704          404701          418104          431704 0.96083  2899.26      0.0538639
   0.62    -23.8864    -817.099    -370.367     253.153   404323   418104   431547          404323          418104          431547 0.962626  2899.58      0.0554692
  0.622    -26.1923      -818.3    -369.861     252.691   404105   418104   431239          404105          418104          431239 0.962372  2899.91      0.0570663
  0.624    -28.4821    -819.503    -369.356     252.243   403825   418104   430882          403825          418104          430882 0.962246  2900.24      0.0586559
  0.626     -30.756    -820.706    -368.852     251.809   403494   418104   430729          403494          418104          430729 0.963834  2900.59      0.0602387
  0.628     -33.014     -821.91    -368.349     251.389   403300   418104   430507          403300          418104          430507 0.964039  2900.94      0.0618151
   0.63    -35.2563    -823.115    -367.846     250.984   403156   418104   430287          403156          418104          430287 0.963859   2901.3      0.0633857
  0.632    -37.4831    -824.321    -367.345     250.594   402820   416672   430143          402820          416672          430143 0.965391  2901.68      0.0649509
  0.634    -39.6946    -825.527    -366.844     250.219   402577   416672   429867          402577          416672          429867 0.965462  2902.06      0.0665109
  0.636    -41.8908    -826.734    -366.344      249.86   402415   416672   429734          402415          416672          429734 0.965913  2902.45      0.0680661
  0.638    -44.0721    -827.943    -365.844     249.516   402132   416672   429386          402132          416672          429386 0.965755  2902.85      0.0696168
   0.64    -46.2384    -829.152    -365.346     249.187   401858   412520   429157          401858          412520          429157 0.966313  2903.26      0.0711629
  0.642    -48.3899    -830.361    -364.848     248.873   401744   412520   428948          401744          412520          428948 0.965957  2903.67      0.0727048
  0.644    -50.5269    -831.572     -364.35     248.574   401643   412520   428616          401643          412520          428616 0.964633   2904.1      0.0742423
  0.646    -52.6494    -832.783    -363.853     248.291   401443   412520   428486          401443          412520          428486 0.965244  2904.54      0.0757755
  0.648    -54.7575    -833.996    -363.357     248.022   401250   412520   428286          401250          412520          428286 0.965308  2904.98      0.0773044
   0.65    -56.8515    -835.209    -362.861     247.768   401045   412520   428000          401045          412520          428000 0.964861  2905.44      0.0788288
  0.652    -58.9314    -836.422    -362.366     247.528   400789   412520   427684          400789          412520          427684 0.964598   2905.9      0.0803486
  0.654    -60.9974    -837.637    -361.871     247.302   400579   412520   427511          400579          412520          427511 0.964982  2906.37      0.0818637
  0.656    -63.0496    -838.852    -361.377      247.09   400445   412520   427337          400445          412520          427337 0.964796  2906.85      0.0833738
  0.658    -65.0882    -840.068    -360.883     246.891   400296   412520   426948          400296          412520          426948 0.963244  2907.34      0.0848788
   0.66    -67.1132    -841.285    -360.389     246.706   400010   412520   426678          400010          412520          426678 0.963456  2907.84      0.0863783
  0.662    -69.1248    -842.503    -359.896     246.533   399725   412520   426387          399725          412520          426387 0.963612  2908.34      0.0878722
  0.664    -71.1232    -843.721    -359.403     246.372   399588   412520   426166          399588          412520          426166 0.963205  2908.86      0.0893601
  0.666    -73.1084     -844.94     -358.91     246.224   399420   412520   425876          399420          412520          425876 0.96252  2909.38      0.0908417
  0.668    -75.0806     -846.16    -358.418     246.087   399354   412520   425730          399354          412520          425730 0.962063  2909.92      0.0923167
   0.67    -77.0399    -847.381    -357.926     245.961   399226   411403   425312          399226          411403          425312 0.960132  2910.46      0.0937849
  0.672    -78.9865    -848.602    -357.434     245.846   399122   411403   425104          399122          411403          425104 0.959429  2911.01      0.0952459
  0.674    -80.9203    -849.825    -356.943     245.742   398613   411403   424912          398613          411403          424912 0.961578  2911.57      0.0966993
  0.676    -82.8416    -851.048    -356.451     245.647   398391   411403   424588          398391          411403          424588 0.960995  2912.13       0.098145
  0.678    -84.7505    -852.271     -355.96     245.561   398137   411403   424347          398137          411403          424347 0.961205  2912.71      0.0995824
   0.68    -86.6471    -853.496    -355.469     245.485   397974   411403   424235          397974          411403          424235 0.961631  2913.29       0.101011
  0.682    -88.5314    -854.721    -354.978     245.417   397561   411403   424058          397561          411403          424058 0.963358  2913.89       0.102432
  0.684    -90.4037    -855.947    -354.487     245.357   397292   411403   423920          397292          411403          423920 0.964344  2914.49       0.103843
  0.686    -92.2639    -857.173    -353.997     245.305   396989   411403   423531          396989          411403          423531 0.963947   2915.1       0.105245
  0.688    -94.1123    -858.401    -353.506      245.26   396819   411403   423434          396819          411403          423434 0.964638  2915.72       0.106637
   0.69     -95.949    -859.629    -353.016     245.222   396546   411403   423334          396546          411403          423334 0.96594  2916.34       0.108019
  0.692    -97.7739    -860.858    -352.525     245.189   396357   411403   423177          396357          411403          423177 0.966262  2916.98       0.109391
  0.694    -99.5873    -862.087    -352.035     245.163   396261   406910   423057          396261          406910          423057 0.966175  2917.62       0.110752
  0.696    -101.389    -863.317    -351.545     245.142   395973   406910   422845          395973          406910          422845 0.96672  2918.27       0.112103
  0.698     -103.18    -864.548    -351.054     245.126   395721   406808   422518          395721          406808          422518 0.96632  2918.93       0.113443
    0.7    -104.959     -865.78    -350.564     245.114   395596   406808   422277          395596          406808          422277 0.965671  2919.59       0.114771
  0.702    -106.727    -867.012    -350.074     245.106   395482   406808   422001          395482          406808          422001 0.964699  2920.27       0.116088
  0.704    -108.484    -868.245    -349.584     245.102   395305   406808   421883          395305          406808          421883 0.965202  2920.95       0.117394
  0.706    -110.231    -869.479    -349.093     245.101   395147   406808   421698          395147          406808          421698 0.965081  2921.64       0.118687
  0.708    -111.966    -870.714    -348.603     245.102   394828   406808   421535          394828          406808          421535 0.966214  2922.34       0.119969
   0.71     -113.69    -871.949    -348.113     245.105   394677   406808   421289          394677          406808          421289 0.965653  2923.04       0.121238
  0.712    -115.404    -873.185    -347.623     245.111   394469   406808   421073          394469          406808          421073 0.96571  2923.75       0.122495
  0.714    -117.107    -874.422    -347.133     245.117   394323   406808   420781          394323          406808          420781 0.964828  2924.47       0.123739
  0.716      -118.8    -875.659    -346.642     245.125   394141   406808   420522          394141          406808          420522 0.964452   2925.2       0.124971
  0.718    -120.483    -876.897    -346.152     245.133   393960   406808   420130          393960          406808          420130 0.963211  2925.94        0.12619
   0.72    -122.155    -878.136    -345.662     245.142   393866   406808   420003          393866          406808          420003 0.963191  2926.68       0.127395
  0.722    -123.816    -879.375    -345.172      245.15   393720   406808   419853          393720          406808          419853 0.963312  2927.43       0.128588
  0.724    -125.468    -880.615    -344.681     245.158   393543   406808   419611          393543          406808          419611 0.962989  2928.18       0.129767
  0.726     -127.11    -881.856    -344.191     245.165   393372   406638   419465          393372          406638          419465 0.963271  2928.95       0.130933
  0.728    -128.741    -883.098    -343.701     245.172   393116   406638   419339          393116          406638          419339 0.964281  2929.72       0.132086
   0.73    -130.363     -884.34     -343.21     245.176   393073   406638   419190          393073          406638          419190 0.963594  2930.49       0.133225
  0.732    -131.975    -885.583     -342.72      245.18   392935   406417   419077          392935          406417          419077 0.963754  2931.28       0.134351
  0.734    -133.577    -886.826     -342.23     245.181   392691   406398   418892          392691          406398          418892 0.964096  2932.07       0.135463
  0.736     -135.17    -888.071    -341.739     245.181   392268   406398   418749          392268          406398          418749 0.966034  2932.87       0.136562
  0.738    -136.753    -889.316    -341.249     245.178   392121   406398   418668          392121          406398          418668 0.966506  2933.67       0.137647
   0.74    -138.327    -890.561    -340.758     245.173   391869   406398   418584          391869          406398          418584 0.967657  2934.48       0.138719
  0.742    -139.891    -891.808    -340.268     245.166   391723   406398   418470          391723          406398          418470 0.967848   2935.3       0.139777
  0.744    -141.446    -893.054    -339.778     245.156   391560   406398   418343          391560          406398          418343 0.968021  2936.12       0.140823
  0.746    -142.991    -894.302    -339.287     245.143   391417   406398   418165          391417          406398          418165 0.967709  2936.95       0.141855
  0.748    -144.528     -895.55    -338.797     245.128   391157   403525   417805          391157          403525          417805 0.966976  2937.79       0.142875
   0.75    -146.055    -896.799    -338.307      245.11   390937   403429   417588          390937          403429          417588 0.967019  2938.63       0.143882
  0.752    -147.574    -898.049    -337.817     245.089   390768   403429   417419          390768          403429          417419 0.967049  2939.48       0.144876
  0.754    -149.083    -899.299    -337.327     245.066   390648   403429   417222          390648          403429          417222 0.96656  2940.34       0.145859
  0.756    -150.584     -900.55    -336.836     245.041   390351   403429   417037          390351          403429          417037 0.967334   2941.2       0.146829
  0.758    -152.075    -901.802    -336.346     245.013   390221   403429   416815          390221          403429          416815 0.966773  2942.06       0.147788
   0.76    -153.558    -903.054    -335.856     244.983   389991   403429   416713          389991          403429          416713 0.967677  2942.94       0.148736
  0.762    -155.033    -904.307    -335.367     244.951   389833   403429   416476          389833          403429          416476 0.967193  2943.81       0.149673
  0.764    -156.499    -905.561    -334.877     244.917   389720   403429   416275          389720          403429          416275 0.96667   2944.7       0.150599
  0.766    -157.956    -906.815    -334.387     244.881   389529   403429   416086          389529          403429          416086 0.966719  2945.59       0.151516
  0.768    -159.405     -908.07    -333.897     244.845   389332   401861   415804          389332          401861          415804 0.966212  2946.48       0.152424
   0.77    -160.845    -909.326    -333.407     244.807   389205   401861   415636          389205          401861          415636 0.966012  2947.38       0.153322
  0.772    -162.278    -910.582    -332.918     244.768   389068   401861   415522          389068          401861          415522 0.966184  2948.29       0.154212
  0.774    -163.702    -911.839    -332.428     244.729   388966   401861   415396          388966          401861          415396 0.965987   2949.2       0.155095
  0.776    -165.117    -913.096    -331.939      244.69   388780   401861   415224          388780          401861          415224 0.966007  2950.12       0.155971
  0.778    -166.525    -914.354     -331.45     244.651   388632   401861   415032          388632          401861          415032 0.965623  2951.04        0.15684
   0.78    -167.925    -915.613     -330.96     244.613   388382   401861   414755          388382          401861          414755 0.9654  2951.97       0.157703
  0.782    -169.316    -916.873    -330.471     244.576   388175   401861   414627          388175          401861          414627 0.965892  2952.91       0.158562
  0.784      -170.7    -918.133    -329.982     244.541   388018   399751   414457          388018          399751          414457 0.965755  2953.84       0.159416
  0.786    -172.076    -919.393    -329.493     244.508   387894   399751   414320          387894          399751          414320 0.965576  2954.79       0.160267
  0.788    -173.444    -920.655    -329.004     244.477   387711   399751   414129          387711          399751          414129 0.965425  2955.74       0.161115
   0.79    -174.805    -921.917    -328.515     244.449   387519   399751   413974          387519          399751          413974 0.965547  2956.69        0.16196
  0.792    -176.157    -923.179    -328.026     244.424   387264   399751   413789          387264          399751          413789 0.965893  2957.65       0.162805
  0.794    -177.503    -924.442    -327.537     244.403   387074   399751   413665          387074          399751          413665 0.966192  2958.62       0.163649
  0.796     -178.84    -925.706    -327.049     244.386   386939   399751   413455          386939          399751          413455 0.965572  2959.59       0.164494
  0.798     -180.17    -926.971     -326.56     244.374   386626   399751   413319          386626          399751          413319 0.966615  2960.57        0.16534
    0.8    -181.493    -928.236    -326.071     244.367   386461   399751   413167          386461          399751          413167 0.966597  2961.55       0.166188
  0.802    -182.808    -929.502    -325.582     244.366   386332   397051   412975          386332          397051          412975 0.966061  2962.54       0.167038
  0.804    -184.116    -930.768    -325.094      244.37   386090   397051   412821          386090          397051          412821 0.966525  2963.53       0.167893
  0.806    -185.417    -932.035    -324.605     244.381   386012   397051   412655          386012          397051          412655 0.965814  2964.53       0.168751
  0.808     -186.71    -933.302    -324.116     244.399   385678   397051   412544          385678          397051          412544 0.967173  2965.53       0.169615
   0.81    -187.997    -934.571    -323.627     244.424   385566   397051   412284          385566          397051          412284 0.966087  2966.54       0.170485
  0.812    -189.276    -935.839    -323.138     244.456   385428   397051   412102          385428          397051          412102 0.965671  2967.55       0.171361
  0.814    -190.548    -937.109    -322.649     244.497   385125   397051   411851          385125          397051          411851 0.965913  2968.57       0.172244
  0.816    -191.814    -938.379     -322.16     244.546   385010   397051   411695          385010          397051          411695 0.965578   2969.6       0.173136
  0.818    -193.072     -939.65    -321.671     244.603   384891   397051   411532          384891          397051          411532 0.965194  2970.63       0.174036
   0.82    -194.323    -940.921    -321.182     244.669   384837   397051   411413          384837          397051          411413 0.96461  2971.67       0.174945
  0.822    -195.568    -942.193    -320.693     244.745   384687   397051   411211          384687          397051          411211 0.964096  2972.71       0.175864
  0.824    -196.806    -943.465    -320.203     244.829   384449   397051   410939          384449          397051          410939 0.963719  2973.76       0.176793
  0.826    -198.037    -944.738    -319.713     244.924   384340   397051   410772          384340          397051          410772 0.963175  2974.81       0.177733
  0.828    -199.261    -946.012    -319.223     245.028   384221   397051   410617          384221          397051          410617 0.962746  2975.87       0.178684
   0.83    -200.479    -947.286    -318.733     245.142   383971   395769   410409          383971          395769          410409 0.962857  2976.94       0.179646
  0.832     -201.69    -948.561    -318.243     245.265   383797   395769   410013          383797          395769          410013 0.961256  2978.01       0.180621
  0.834    -202.895    -949.837    -317.752     245.399   383579   395769   409916          383579          395769          409916 0.961989  2979.09       0.181608
  0.836    -204.093    -951.113    -317.261     245.543   383414   395769   409843          383414          395769          409843 0.962476  2980.18       0.182607
  0.838    -205.285    -952.389     -316.77     245.697   383240   395769   409635          383240          395769          409635 0.962072  2981.27       0.183618
   0.84     -206.47    -953.667    -316.278     245.861   383054   395769   409404          383054          395769          409404 0.96163  2982.37       0.184642
  0.842    -207.649    -954.945    -315.786     246.035   382958   395769   409255          382958          395769          409255 0.961107  2983.47       0.185679
  0.844    -208.822    -956.223    -315.294     246.219   382723   395769   409071          382723          395769          409071 0.961294  2984.58       0.186728
  0.846    -209.988    -957.502    -314.802     246.412   382555   394788   408912          382555          394788          408912 0.961172   2985.7        0.18779
  0.848    -211.149    -958.782    -314.309     246.615   382453   394788   408745          382453          394788          408745 0.960525  2986.82       0.188864
   0.85    -212.303    -960.062    -313.815     246.827   382134   394788   408576          382134          394788          408576 0.961391  2987.96       0.189951
  0.852    -213.451    -961.343    -313.321     247.048   381983   394788   408442          381983          394788          408442 0.961312  2989.09       0.191049
  0.854    -214.593    -962.624    -312.827     247.278   381852   394788   408219          381852          394788          408219 0.960467  2990.24       0.192159
  0.856    -215.729    -963.907    -312.332     247.517   381703   394788   408047          381703          394788          408047 0.960078  2991.39        0.19328
  0.858    -216.859    -965.189    -311.837     247.763   381526   394788   407932          381526          394788          407932 0.960263  2992.55       0.194411
   0.86    -217.983    -966.472    -311.341     248.017   381098   394788   407778          381098          394788          407778 0.961926  2993.72       0.195553
  0.862    -219.101    -967.756    -310.845     248.278   380762   394788   407673          380762          394788          407673 0.96334  2994.89       0.196704
  0.864    -220.213    -969.041    -310.348     248.547   380588   394788   407490          380588          394788          407490 0.963132  2996.08       0.197865
  0.866    -221.319    -970.326    -309.851     248.821   380143   394788   407383          380143          394788          407383 0.965397  2997.27       0.199033
  0.868     -222.42    -971.611    -309.353     249.101   380005   393989   407265          380005          393989          407265 0.965495  2998.46        0.20021
   0.87    -223.514    -972.898    -308.854     249.387   379686   393989   407189          379686          393989          407189 0.967117  2999.67       0.201392
  0.872    -224.604    -974.185    -308.355     249.677   379571   393989   407081          379571          393989          407081 0.967123  3000.88       0.202581
  0.874    -225.687    -975.472    -307.855     249.972   379479   393989   407004          379479          393989          407004 0.967145   3002.1       0.203775
  0.876    -226.765     -976.76    -307.355      250.27   379306   393989   406910          379306          393989          406910 0.967547  3003.33       0.204973
  0.878    -227.837    -978.049    -306.854     250.572   379089   393989   406742          379089          393989          406742 0.967758  3004.56       0.206174
   0.88    -228.904    -979.338    -306.353     250.875   378632   393989   406620          378632          393989          406620 0.969977   3005.8       0.207377
  0.882    -229.965    -980.628    -305.851     251.181   378431   393989   406441          378431          393989          406441 0.970171  3007.05       0.208581
  0.884    -231.021    -981.918    -305.348     251.488   378344   393989   406118          378344          393989          406118 0.968686  3008.31       0.209786
  0.886    -232.071    -983.209    -304.845     251.795   378225   391912   405962          378225          391912          405962 0.968524  3009.58       0.210989
  0.888    -233.116    -984.501    -304.341     252.102   378183   391912   405725          378183          391912          405725 0.967321  3010.85        0.21219
   0.89    -234.155    -985.793    -303.837     252.408   378043   391912   405590          378043          391912          405590 0.9674  3012.13       0.213389
  0.892    -235.189    -987.086    -303.331     252.713   377876   391912   405509          377876          391912          405509 0.968002  3013.42       0.214583
  0.894    -236.218    -988.379    -302.826     253.017   377722   391912   405232          377722          391912          405232 0.967276  3014.72       0.215772
  0.896    -237.242    -989.673    -302.319     253.317   377586   391912   405053          377586          391912          405053 0.96706  3016.03       0.216954
  0.898     -238.26    -990.968    -301.812     253.614   377424   391912   404945          377424          391912          404945 0.967451  3017.34        0.21813
    0.9    -239.274    -992.263    -301.305     253.908   377220   391912   404789          377220          391912          404789 0.967807  3018.66       0.219296
  0.902    -240.282    -993.558    -300.797     254.197   377088   391912   404603          377088          391912          404603 0.967514  3019.99       0.220453
  0.904    -241.285    -994.855    -300.288     254.481   376828   391912   404508          376828          391912          404508 0.968622  3021.32         0.2216
  0.906    -242.282    -996.152    -299.779      254.76   376726   391912   404403          376726          391912          404403 0.96867  3022.66       0.222735
  0.908    -243.275    -997.449    -299.269     255.032   376657   390079   404326          376657          390079          404326 0.968639  3024.01       0.223858
   0.91    -244.263    -998.747    -298.759     255.298   376579   390079   404186          376579          390079          404186 0.968218  3025.37       0.224967
  0.912    -245.246    -1000.05    -298.248     255.558   376501   390079   403990          376501          390079          403990 0.967416  3026.74       0.226062
  0.914    -246.224    -1001.35    -297.736     255.809   376396   390079   403855          376396          390079          403855 0.967147  3028.11       0.227141
  0.916    -247.197    -1002.65    -297.225     256.053   376284   390079   403713          376284          390079          403713 0.966842  3029.49       0.228205
  0.918    -248.165    -1003.95    -296.712     256.289   376135   390079   403595          376135          390079          403595 0.9669  3030.87       0.229252
   0.92    -249.128    -1005.25    -296.199     256.516   375926   390079   403475          375926          390079          403475 0.967325  3032.27       0.230282
  0.922    -250.086    -1006.55    -295.686     256.735   375670   390079   403260          375670          390079          403260 0.967451  3033.67       0.231294
  0.924     -251.04    -1007.85    -295.173     256.944   375536   390079   403080          375536          390079          403080 0.96708  3035.07       0.232287
  0.926    -251.989    -1009.15    -294.658     257.144   375436   390079   402942          375436          390079          402942 0.966739  3036.49       0.233262
  0.928    -252.933    -1010.46    -294.144     257.335   375208   390079   402869          375208          390079          402869 0.967573  3037.91       0.234216
   0.93    -253.872    -1011.76    -293.629     257.516   375142   390079   402709          375142          390079          402709 0.966846  3039.33       0.235151
  0.932    -254.807    -1013.07    -293.114     257.687   374965   389850   402582          374965          389850          402582 0.966971  3040.77       0.236066
  0.934    -255.737    -1014.37    -292.598     257.848   374657   389850   402380          374657          389850          402380 0.967449   3042.2        0.23696
  0.936    -256.662    -1015.68    -292.083     257.999   374498   389850   402262          374498          389850          402262 0.967575  3043.65       0.237834
  0.938    -257.583    -1016.98    -291.566      258.14   374328   389850   402150          374328          389850          402150 0.967753   3045.1       0.238687
   0.94      -258.5    -1018.29     -291.05     258.272   374192   389850   402030          374192          389850          402030 0.967691  3046.56       0.239519
  0.942    -259.412     -1019.6    -290.533     258.393   373766   386571   401920          373766          386571          401920 0.969425  3048.02        0.24033
  0.944    -260.319    -1020.91    -290.016     258.505   373638   386571   401690          373638          386571          401690 0.96871  3049.49       0.241121
  0.946    -261.222    -1022.22    -289.499     258.607   373367   385667   401520          373367          385667          401520 0.969249  3050.96       0.241891
  0.948     -262.12    -1023.52    -288.982       258.7   373312   385130   401322          373312          385130          401322 0.968331  3052.44        0.24264
   0.95    -263.014    -1024.83    -288.465     258.783   373221   385130   401140          373221          385130          401140 0.967693  3053.92        0.24337
  0.952    -263.904    -1026.15    -287.947     258.858   373113   385130   400993          373113          385130          400993 0.967339  3055.41       0.244079
  0.954    -264.789    -1027.46    -287.429     258.924   372910   385130   400832          372910          385130          400832 0.967486  3056.91       0.244769
  0.956     -265.67    -1028.77    -286.911     258.981   372730   385130   400705          372730          385130          400705 0.967688   3058.4        0.24544
  0.958    -266.547    -1030.08    -286.393     259.031   372636   385130   400509          372636          385130          400509 0.966936  3059.91       0.246093
   0.96     -267.42    -1031.39    -285.875     259.072   372519   385130   400270          372519          385130          400270 0.966055  3061.42       0.246727
  0.962    -268.288    -1032.71    -285.357     259.106   372411   385130   400148          372411          385130          400148 0.965827  3062.93       0.247344
  0.964    -269.152    -1034.02    -284.839     259.133   372137   385130   400016          372137          385130          400016 0.966566  3064.45       0.247943
  0.966    -270.012    -1035.34     -284.32     259.153   372069   385130   399915          372069          385130          399915 0.966209  3065.97       0.248527
  0.968    -270.868    -1036.65    -283.802     259.167   371834   385130   399772          371834          385130          399772 0.966603  3067.49       0.249094
   0.97    -271.719    -1037.97    -283.284     259.175   371726   385130   399547          371726          385130          399547 0.965707  3069.03       0.249647
  0.972    -272.567    -1039.28    -282.765     259.178   371521   385130   399148          371521          385130          399148 0.964373  3070.56       0.250185
  0.974     -273.41     -1040.6    -282.247     259.176   371140   385130   398998          371140          385130          398998 0.965727   3072.1       0.250709
  0.976     -274.25    -1041.92    -281.729     259.169   371067   385130   398898          371067          385130          398898 0.965517  3073.64        0.25122
  0.978    -275.085    -1043.24     -281.21     259.158   370686   385130   398771          370686          385130          398771 0.967065  3075.19       0.251719
   0.98    -275.917    -1044.55    -280.692     259.143   370611   385012   398694          370611          385012          398694 0.967026  3076.74       0.252206
  0.982    -276.744    -1045.87    -280.174     259.126   370470   385012   398616          370470          385012          398616 0.967343  3078.29       0.252683
  0.984    -277.568    -1047.19    -279.656     259.105   370400   385012   398497          370400          385012          398497 0.966946  3079.85       0.253149
  0.986    -278.387    -1048.51    -279.137     259.082   370276   385012   398316          370276          385012          398316 0.96646  3081.41       0.253606
  0.988    -279.203    -1049.83    -278.619     259.057   370133   385012   398232          370133          385012          398232 0.966672  3082.97       0.254054
   0.99    -280.015    -1051.16    -278.101      259.03   369795   385012   398092          369795          385012          398092 0.967743  3084.54       0.254493
  0.992    -280.823    -1052.48    -277.583     259.002   369644   380242   397900          369644          380242          397900 0.967399  3086.11       0.254926
  0.994    -281.627     -1053.8    -277.065     258.973   369506   380242   397796          369506          380242          397796 0.9675  3087.69       0.255351
  0.996    -282.427    -1055.12    -276.547     258.944   369391   379692   397681          369391          379692          397681 0.967359  3089.27       0.255771
  0.998    -283.224    -1056.45    -276.029     258.915   369326   379692   397467          369326          379692          397467 0.966276  3090.85       0.256185
      1    -284.017    -1057.77    -275.512     258.886   369249   379692   397315          369249          379692          397315 0.965631  3092.43       0.256593
  1.002    -284.806     -1059.1    -274.994     258.857   369057   379692   397194          369057          379692          397194 0.965908  3094.02       0.256997
  1.004    -285.591    -1060.42    -274.476      258.83   368949   379692   397060          368949          379692          397060 0.965551  3095.62       0.257398
  1.006    -286.373    -1061.75    -273.958     258.803   368816   379692   396869          368816          379692          396869 0.964984  3097.21       0.257794
  1.008    -287.151    -1063.07    -273.441     258.778   368482   379692   396676          368482          379692          396676 0.965743  3098.81       0.258187
   1.01    -287.926     -1064.4    -272.923     258.754   368251   379692   396442          368251          379692          396442 0.965631  3100.41       0.258578
  1.012    -288.697    -1065.73    -272.406     258.732   368084   379692   396237          368084          379692          396237 0.96531  3102.02       0.258966
  1.014    -289.464    -1067.06    -271.888     258.712   367992   379692   396111          367992          379692          396111 0.965037  3103.62       0.259352
  1.016    -290.228    -1068.38    -271.371     258.693   367874   379692   395980          367874          379692          395980 0.964877  3105.24       0.259736
  1.018    -290.988    -1069.71    -270.854     258.677   367810   379692   395820          367810          379692          395820 0.964141  3106.85       0.260118
   1.02    -291.745    -1071.04    -270.336     258.664   367528   379692   395669          367528          379692          395669 0.964923  3108.47       0.260499
  1.022    -292.498    -1072.37    -269.819     258.652   367437   379692   395508          367437          379692          395508 0.964385  3110.09       0.260878
  1.024    -293.248     -1073.7    -269.302     258.643   367223   379692   395314          367223          379692          395314 0.964506  3111.71       0.261256
  1.026    -293.994    -1075.04    -268.784     258.637   366979   379692   395104          366979          379692          395104 0.964742  3113.34       0.261633
  1.028    -294.737    -1076.37    -268.267     258.633   366553   379692   394955          366553          379692          394955 0.966765  3114.97       0.262009
   1.03    -295.477     -1077.7     -267.75     258.631   366448   379692   394872          366448          379692          394872 0.967063  3116.61       0.262384
  1.032    -296.213    -1079.03    -267.233     258.632   366201   378497   394718          366201          378497          394718 0.967882  3118.24       0.262757
  1.034    -296.945    -1080.37    -266.715     258.635   366141   378497   394561          366141          378497          394561 0.967374  3119.88       0.263129
  1.036    -297.675     -1081.7    -266.198      258.64   365970   378497   394366          365970          378497          394366 0.967386  3121.53         0.2635
  1.038    -298.401    -1083.04    -265.681     258.648   365891   378497   394223          365891          378497          394223 0.967131  3123.17       0.263869
   1.04    -299.124    -1084.37    -265.163     258.657   365853   378497   394060          365853          378497          394060 0.966425  3124.82       0.264236
  1.042    -299.843    -1085.71    -264.646     258.669   365781   378497   393750          365781          378497          393750 0.964899  3126.48       0.264601
  1.044    -300.559    -1087.04    -264.129     258.682   365634   378497   393583          365634          378497          393583 0.964988  3128.13       0.264965
  1.046    -301.272    -1088.38    -263.611     258.697   365574   378497   393395          365574          378497          393395 0.964285  3129.79       0.265326
  1.048    -301.982    -1089.72    -263.094     258.713   365437   378497   393245          365437          378497          393245 0.96442  3131.45       0.265685
   1.05    -302.688    -1091.05    -262.577     258.731   365325   378497   393139          365325          378497          393139 0.964677  3133.12        0.26604
  1.052    -303.392    -1092.39    -262.059      258.75   365278   378497   392754          365278          378497          392754 0.962491  3134.79       0.266393
  1.054    -304.092    -1093.73    -261.542      258.77   365172   378497   392672          365172          378497          392672 0.962906  3136.46       0.266742
  1.056    -304.789    -1095.07    -261.024      258.79   365120   378497   392575          365120          378497          392575 0.962786  3138.13       0.267088
  1.058    -305.483    -1096.41    -260.506     258.811   365016   378497   392441          365016          378497          392441 0.962747  3139.81        0.26743
   1.06    -306.173    -1097.75    -259.989     258.833   364943   378497   392371          364943          378497          392371 0.962921  3141.49       0.267768
  1.062    -306.861    -1099.09    -259.471     258.855   364781   378439   392271          364781          378439          392271 0.963503  3143.18       0.268101
  1.064    -307.546    -1100.43    -258.953     258.877   364717   378439   392079          364717          378439          392079 0.962709  3144.86        0.26843
  1.066    -308.227    -1101.78    -258.436     258.899   364637   378439   391966          364637          378439          391966 0.962574  3146.55       0.268754
  1.068    -308.906    -1103.12    -257.918      258.92   364541   378439   391831          364541          378439          391831 0.962364  3148.25       0.269072
   1.07    -309.581    -1104.46      -257.4     258.941   364441   378439   391608          364441          378439          391608 0.961561  3149.94       0.269386
  1.072    -310.253     -1105.8    -256.882     258.961   364264   378439   391433          364264          378439          391433 0.961673  3151.64       0.269693
  1.074    -310.923    -1107.15    -256.364     258.981   364162   378439   391303          364162          378439          391303 0.961579  3153.34       0.269995
  1.076    -311.589    -1108.49    -255.846     258.999   364062   378439   391195          364062          378439          391195 0.961599  3155.05       0.270292
  1.078    -312.253    -1109.84    -255.328     259.017   363930   378439   391080          363930          378439          391080 0.961771  3156.75       0.270582
   1.08    -312.914    -1111.18     -254.81     259.033   363867   378439   390998          363867          378439          390998 0.961666  3158.46       0.270866
  1.082    -313.571    -1112.53    -254.292     259.048   363722   378439   390839          363722          378439          390839 0.961569  3160.18       0.271144
  1.084    -314.226    -1113.88    -253.774     259.061   363639   378439   390723          363639          378439          390723 0.961332  3161.89       0.271415
  1.086    -314.878    -1115.22    -253.256     259.073   363479   378439   390569          363479          378439          390569 0.961361  3163.61       0.271681
  1.088    -315.527    -1116.57    -252.738     259.084   363379   378439   390490          363379          378439          390490 0.961466  3165.33        0.27194
   1.09    -316.173    -1117.92    -252.219     259.093   363136   378439   390396          363136          378439          390396 0.962444  3167.05       0.272193
  1.092    -316.816    -1119.27    -251.701       259.1   362833   378439   390247          362833          378439          390247 0.963475  3168.78        0.27244
  1.094    -317.457    -1120.62    -251.183     259.106   362727   378439   390158          362727          378439          390158 0.963594   3170.5       0.272681
  1.096    -318.095    -1121.97    -250.665      259.11   362585   378439   390055          362585          378439          390055 0.963842  3172.23       0.272916
  1.098     -318.73    -1123.32    -250.146     259.113   362483   378439   389904          362483          378439          389904 0.963479  3173.97       0.273146
    1.1    -319.362    -1124.67    -249.628     259.114   362415   378439   389797          362415          378439          389797 0.963162   3175.7        0.27337
  1.102    -319.991    -1126.02     -249.11     259.114   362117   378439   389656          362117          378439          389656 0.964133  3177.44        0.27359
  1.104    -320.618    -1127.37    -248.592     259.113   362029   378439   389490          362029          378439          389490 0.963588  3179.18       0.273805
  1.106    -321.242    -1128.72    -248.074     259.111   361951   378439   389418          361951          378439          389418 0.963551  3180.92       0.274015
  1.108    -321.863    -1130.08    -247.555     259.107   361819   378439   389308          361819          378439          389308 0.963585  3182.67       0.274222
